File: Data_Processing/Tensile-Data/Sequence_13.csv
General : Start date,"10/22/2024 9:46 AM"
General : End date,"10/22/2024 9:47 AM"
Specimen notes : Specimen note 1,"green, 200, batch 9, seq 13"
Test : Rate 1,"5.00000",mm/min

Time,Extension,Load
(s),(mm),(N)
"0.00000","-0.00020","0.35331"
"0.20000","0.00998","12.10931"
"0.40000","0.03225","54.62806"
"0.60000","0.04949","84.61513"
"0.80000","0.06642","113.287"
"1.00000","0.08326","141.482"
"1.20000","0.10009","169.039"
"1.40000","0.11672","195.359"
"1.60000","0.13325","222.869"
"1.80000","0.15028","251.685"
"2.00000","0.16681","280.072"
"2.20000","0.18304","306.219"
"2.40000","0.20028","336.08"
"2.60000","0.21691","365.855"
"2.80000","0.23314","391.461"
"3.00000","0.24987","419.248"
"3.20000","0.26690","448.254"
"3.40000","0.28313","474.557"
"3.60000","0.29996","502.64"
"3.80000","0.31679","529.779"
"4.00000","0.33343","556.967"
"4.20000","0.34985","584.944"
"4.40000","0.36669","611.005"
"4.60000","0.38382","638.594"
"4.80000","0.39975","664.723"
"5.00000","0.41648","691.59"
"5.20000","0.43321","717.491"
"5.40000","0.45025","744.615"
"5.60000","0.46617","769.47"
"5.80000","0.48341","798.303"
"6.00000","0.50024","823.375"
"6.20000","0.51637","849.352"
"6.40000","0.53330","876.206"
"6.60000","0.55043","902.598"
"6.80000","0.56666","927.727"
"7.00000","0.58319","953.443"
"7.20000","0.60013","978.572"
"7.40000","0.61686","1004.54"
"7.60000","0.63319","1029.23"
"7.80000","0.65002","1055.6"
"8.00000","0.66705","1081.83"
"8.20000","0.68328","1106.37"
"8.40000","0.69961","1131.61"
"8.60000","0.71674","1157.26"
"8.80000","0.73307","1181.13"
"9.00000","0.74960","1206.35"
"9.20000","0.76674","1232.58"
"9.40000","0.78357","1257.71"
"9.60000","0.80000","1283.33"
"9.80000","0.81673","1307.85"
"10.00000","0.83336","1331.98"
"10.20000","0.85030","1356.44"
"10.40000","0.86632","1378.77"
"10.60000","0.88356","1403.97"
"10.80000","0.90019","1429.99"
"11.00000","0.91631","1452.69"
"11.20000","0.93335","1477.58"
"11.40000","0.95008","1502.87"
"11.60000","0.96661","1527.52"
"11.80000","0.98314","1549.82"
"12.00000","1.00018","1573.69"
"12.20000","1.01671","1598.01"
"12.40000","1.03303","1620.2"
"12.60000","1.05007","1644.67"
"12.80000","1.06700","1668.8"
"13.00000","1.08303","1692"
"13.20000","1.09996","1714.36"
"13.40000","1.11689","1738.99"
"13.60000","1.13322","1761.11"
"13.80000","1.14975","1783.54"
"14.00000","1.16679","1807.31"
"14.20000","1.18362","1829.31"
"14.40000","1.19975","1851.56"
"14.60000","1.21688","1874.79"
"14.80000","1.23331","1897.09"
"15.00000","1.25014","1921.12"
"15.20000","1.26637","1938.13"
"15.40000","1.28341","1960.4"
"15.60000","1.30014","1982.64"
"15.80000","1.31616","2004.48"
"16.00000","1.33350","2028.37"
"16.20000","1.35013","2050.31"
"16.40000","1.36676","2072.36"
"16.60000","1.38319","2093.24"
"16.80000","1.40023","2115.81"
"17.00000","1.41676","2136.8"
"17.20000","1.43308","2157.88"
"17.40000","1.45002","2179.72"
"17.60000","1.46695","2200.24"
"17.80000","1.48308","2218.42"
"18.00000","1.50011","2241.99"
"18.20000","1.51684","2263.55"
"18.40000","1.53307","2284.68"
"18.60000","1.54990","2304.85"
"18.80000","1.56684","2327.16"
"19.00000","1.58357","2346.81"
"19.20000","1.59970","2366.73"
"19.40000","1.61663","2387.64"
"19.60000","1.63356","2406.62"
"19.80000","1.64959","2427.89"
"20.00000","1.66662","2449.1"
"20.20000","1.68346","2470.15"
"20.40000","1.70019","2490.52"
"20.60000","1.71631","2511.55"
"20.80000","1.73365","2531.16"
"21.00000","1.75008","2551.19"
"21.20000","1.76661","2559.87"
"21.40000","1.78334","2578.95"
"21.60000","1.80028","2598.85"
"21.80000","1.81650","2617.36"
"22.00000","1.83313","2637.47"
"22.20000","1.85027","2657.09"
"22.40000","1.86670","2675.59"
"22.60000","1.88293","2694.43"
"22.80000","1.90016","2714.73"
"23.00000","1.91679","2733.45"
"23.20000","1.93312","2751.56"
"23.40000","1.94985","2770.84"
"23.60000","1.96679","2790.08"
"23.80000","1.98352","2808.92"
"24.00000","1.99985","2825.91"
"24.20000","2.01678","2844.76"
"24.40000","2.03361","2863.28"
"24.60000","2.04984","2879.93"
"24.80000","2.06687","2898.49"
"25.00000","2.08340","2916.71"
"25.20000","2.09983","2932.47"
"25.40000","2.11626","2949.9"
"25.60000","2.13360","2968.13"
"25.80000","2.14993","2984.96"
"26.00000","2.16666","3002.79"
"26.20000","2.18349","3019.72"
"26.40000","2.20022","3036.26"
"26.60000","2.21645","3053.04"
"26.80000","2.23308","3068.56"
"27.00000","2.25012","3085.06"
"27.20000","2.26675","3102.47"
"27.40000","2.28318","3117.02"
"27.60000","2.30011","3132.82"
"27.80000","2.31654","3144.7"
"28.00000","2.33307","3158.16"
"28.20000","2.35010","3174.01"
"28.40000","2.36684","3188.79"
"28.60000","2.38337","3202.41"
"28.80000","2.39990","3215.78"
"29.00000","2.41643","3229.38"
"29.20000","2.43376","3243.6"
"29.40000","2.44959","3204.36"
"29.60000","2.46692","3216.02"
"29.80000","2.48356","3223.05"
"30.00000","2.49978","3233.61"
"30.20000","2.51651","3205.73"
"30.40000","2.53355","3185.94"
"30.60000","2.54988","3194.6"
"30.80000","2.56641","3207.04"
"31.00000","2.58334","3219.77"
"31.20000","2.60027","3232.55"
"31.40000","2.61650","3245.61"
"31.60000","2.63364","3184.79"
"31.80000","2.65047","3204.18"
"32.00000","2.66670","3220.76"
"32.20000","2.68313","3236.16"
"32.40000","2.70046","3252.48"
"32.60000","2.71659","3267.92"
"32.80000","2.73312","3242.78"
"33.00000","2.75005","3260.55"
"33.20000","2.76699","3277.12"
"33.40000","2.78311","3293.18"
"33.60000","2.79985","3308.05"
"33.80000","2.81658","3323.64"
"34.00000","2.83361","3338.02"
"34.20000","2.84954","3352.79"
"34.40000","2.86697","3368.64"
"34.60000","2.88340","3381.16"
"34.80000","2.89973","3393.73"
"35.00000","2.91677","3406.15"
"35.20000","2.93350","3418.02"
"35.40000","2.95013","3430.99"
"35.60000","2.96676","3443.68"
"35.80000","2.98359","3456.02"
"36.00000","3.00012","3467.79"
"36.20000","3.01625","3478.67"
"36.40000","3.03328","3490.67"
"36.60000","3.05032","3502.03"
"36.80000","3.06644","3513.35"
"37.00000","3.08328","3525.37"
"37.20000","3.10061","3536.74"
"37.40000","3.11674","3545.5"
"37.60000","3.13307","3555.71"
"37.80000","3.15000","3566.85"
"38.00000","3.16694","3577.91"
"38.20000","3.18326","3587.4"
"38.40000","3.19990","3596.88"
"38.60000","3.21673","3606.36"
"38.80000","3.23336","3616.7"
"39.00000","3.24969","3623.85"
"39.20000","3.26682","3634.78"
"39.40000","3.28345","3643.47"
"39.60000","3.29978","3651.33"
"39.80000","3.31702","3660.13"
"40.00000","3.33325","3667.16"
"40.20000","3.34988","3674.83"
"40.40000","3.36661","3681.03"
"40.60000","3.38344","3688.33"
"40.80000","3.39997","3693"
"41.00000","3.41630","3696.97"
"41.20000","3.43343","3702.82"
"41.40000","3.45037","3707.52"
"41.60000","3.46619","3710.74"
"41.80000","3.48333","3714.36"
"42.00000","3.50036","3718.73"
"42.20000","3.51659","3720.02"
"42.40000","3.53322","3721.92"
"42.60000","3.55015","3723.79"
"42.80000","3.56709","3723.92"
"43.00000","3.58311","3721.98"
"43.20000","3.59974","3720.7"
"43.40000","3.61688","3719.09"
"43.60000","3.63321","3715.25"
"43.80000","3.64974","3708.63"
"44.00000","3.66677","3700.16"
"44.20000","3.68340","3680.12"
"44.40000","3.69943","3600.55"
"44.57400","3.71495","3166.98"
"44.58200","3.71566","2530.62"
"44.58800","3.71636","1958.28"