File: Data_Processing/Tensile-Data/Sequence_4.csv
General : Start date,"10/22/2024 9:16 AM"
General : End date,"10/22/2024 9:17 AM"
Specimen notes : Specimen note 1,"purple, 200, batch 4, seq 4"
Test : Rate 1,"5.00000",mm/min

Time,Extension,Load
(s),(mm),(N)
"0.00000","0.00000","0.72189"
"0.20000","0.01189","14.24866"
"0.40000","0.03235","55.30144"
"0.60000","0.04979","84.22055"
"0.80000","0.06703","115.348"
"1.00000","0.08356","139.713"
"1.20000","0.10009","164.977"
"1.40000","0.11722","193.727"
"1.60000","0.13395","223.28"
"1.80000","0.15018","251.653"
"2.00000","0.16691","279.682"
"2.20000","0.18405","309.737"
"2.40000","0.20028","337.62"
"2.60000","0.21671","366.252"
"2.80000","0.23374","394.737"
"3.00000","0.24997","422.948"
"3.20000","0.26660","450.821"
"3.40000","0.28383","478.932"
"3.60000","0.30026","507.151"
"3.80000","0.31690","536.472"
"4.00000","0.33373","562.143"
"4.20000","0.35056","590.473"
"4.40000","0.36699","617.577"
"4.60000","0.38332","645.429"
"4.80000","0.40055","672.701"
"5.00000","0.41729","700.524"
"5.20000","0.43331","726.676"
"5.40000","0.45035","753.883"
"5.60000","0.46708","781.226"
"5.80000","0.48351","808.423"
"6.00000","0.50004","833.763"
"6.20000","0.51717","861.262"
"6.40000","0.53340","887.165"
"6.60000","0.54993","912.724"
"6.80000","0.56676","939.382"
"7.00000","0.58380","965.904"
"7.20000","0.60002","991.148"
"7.40000","0.61676","1017.64"
"7.60000","0.63379","1043.08"
"7.80000","0.65022","1068.1"
"8.00000","0.66675","1092.61"
"8.20000","0.68388","1118.02"
"8.40000","0.70042","1144.25"
"8.60000","0.71654","1167.99"
"8.80000","0.73368","1193.02"
"9.00000","0.75011","1218.57"
"9.20000","0.76704","1244.06"
"9.40000","0.78327","1267.03"
"9.60000","0.80030","1292.76"
"9.80000","0.81713","1317.16"
"10.00000","0.83306","1341.21"
"10.20000","0.85040","1363.68"
"10.40000","0.86723","1389.47"
"10.60000","0.88356","1412.15"
"10.80000","0.89999","1435.41"
"11.00000","0.91712","1462.22"
"11.20000","0.93355","1485.3"
"11.40000","0.94998","1507.67"
"11.60000","0.96691","1532.97"
"11.80000","0.98385","1556.27"
"12.00000","0.99997","1576.77"
"12.20000","1.01691","1601.28"
"12.40000","1.03394","1623.79"
"12.60000","1.04997","1645.8"
"12.80000","1.06670","1670.02"
"13.00000","1.08363","1693.3"
"13.20000","1.10036","1715.01"
"13.40000","1.11659","1736.12"
"13.60000","1.13342","1758.93"
"13.80000","1.15056","1781.25"
"14.00000","1.16679","1802.3"
"14.20000","1.18342","1822.91"
"14.40000","1.20055","1783.88"
"14.60000","1.21718","1809.75"
"14.80000","1.23331","1834.43"
"15.00000","1.25075","1860.68"
"15.20000","1.26708","1883.69"
"15.40000","1.28351","1906.88"
"15.60000","1.30034","1930.58"
"15.80000","1.31707","1954.01"
"16.00000","1.33320","1976.7"
"16.20000","1.34993","1998.61"
"16.40000","1.36716","2021.98"
"16.60000","1.38370","2043.26"
"16.80000","1.39982","2064.52"
"17.00000","1.41706","2087.77"
"17.20000","1.43379","2107.81"
"17.40000","1.44992","2128.65"
"17.60000","1.46695","2150.47"
"17.80000","1.48388","2171.3"
"18.00000","1.50051","2193.2"
"18.20000","1.51684","2212.72"
"18.40000","1.53368","2180.77"
"18.60000","1.55051","2205.17"
"18.80000","1.56664","2228.85"
"19.00000","1.58357","2252.69"
"19.20000","1.60030","2276.04"
"19.40000","1.61683","2298.14"
"19.60000","1.63326","2320.19"
"19.80000","1.65060","2343.21"
"20.00000","1.66682","2364.88"
"20.20000","1.68366","2386.7"
"20.40000","1.70039","2407.49"
"20.60000","1.71712","2429.28"
"20.80000","1.73335","2449.71"
"21.00000","1.74998","2470.8"
"21.20000","1.76711","2491.7"
"21.40000","1.78374","2513.1"
"21.60000","1.79997","2532.34"
"21.80000","1.81701","2553.36"
"22.00000","1.83354","2571.99"
"22.20000","1.84997","2592.38"
"22.40000","1.86690","2612.69"
"22.60000","1.88373","2572.45"
"22.80000","1.90016","2597.79"
"23.00000","1.91669","2619.88"
"23.20000","1.93363","2643.99"
"23.40000","1.95066","2666.15"
"23.60000","1.96658","2686.72"
"23.80000","1.98382","2709.77"
"24.00000","2.00035","2730.36"
"24.20000","2.01668","2751.15"
"24.40000","2.03341","2771.69"
"24.60000","2.05044","2793.77"
"24.80000","2.06677","2813.59"
"25.00000","2.08330","2834.23"
"25.20000","2.10034","2854.5"
"25.40000","2.11717","2874.8"
"25.60000","2.13320","2893.06"
"25.80000","2.15033","2913.95"
"26.00000","2.16737","2933.52"
"26.20000","2.18359","2952.55"
"26.40000","2.19992","2971.33"
"26.60000","2.21726","2990.39"
"26.80000","2.23349","3007.2"
"27.00000","2.25002","2973.44"
"27.20000","2.26705","2996.63"
"27.40000","2.28378","3018.37"
"27.60000","2.29991","3038.44"
"27.80000","2.31684","3059.87"
"28.00000","2.33357","3078.95"
"28.20000","2.35051","3100.26"
"28.40000","2.36643","3119.45"
"28.60000","2.38377","3140.7"
"28.80000","2.40020","3159.74"
"29.00000","2.41663","3179.32"
"29.20000","2.43376","3198.92"
"29.40000","2.45049","3217.89"
"29.60000","2.46703","3236.18"
"29.80000","2.48345","3254.62"
"30.00000","2.50059","3273.1"
"30.20000","2.51692","3291.77"
"30.40000","2.53304","3307.65"
"30.60000","2.55028","3327.22"
"30.80000","2.56731","3345.35"
"31.00000","2.58344","3362.37"
"31.20000","2.60027","3368.52"
"31.40000","2.61741","3384.28"
"31.60000","2.63344","3401.07"
"31.80000","2.64997","3415.83"
"32.00000","2.66710","3367.99"
"32.20000","2.68383","3204.73"
"32.40000","2.70006","3220.8"
"32.60000","2.71689","3238.47"
"32.80000","2.73372","3257.03"
"33.00000","2.75026","3276.62"
"33.20000","2.76658","3294.73"
"33.40000","2.78382","3314.75"
"33.60000","2.80035","3333.21"
"33.80000","2.81658","3351.46"
"34.00000","2.83371","3370.79"
"34.20000","2.85024","3389.38"
"34.40000","2.86697","3407.25"
"34.60000","2.88350","3422.83"
"34.80000","2.90044","3440.96"
"35.00000","2.91677","3457.33"
"35.20000","2.93320","3474.57"
"35.40000","2.95023","3490.21"
"35.60000","2.96716","3506.69"
"35.80000","2.98309","3522.3"
"36.00000","3.00022","3538.54"
"36.20000","3.01716","3555.21"
"36.40000","3.03349","3570.27"
"36.60000","3.05032","3584.83"
"36.80000","3.06705","3600.03"
"37.00000","3.08398","3615.15"
"37.20000","3.10001","3628.38"
"37.40000","3.11694","3641.52"
"37.60000","3.13367","3656.05"
"37.80000","3.15010","3573.91"
"38.00000","3.16673","3588.71"
"38.20000","3.18367","3604.92"
"38.40000","3.20030","3619.48"
"38.60000","3.21632","3633.02"
"38.80000","3.23376","3648.84"
"39.00000","3.25029","3663.45"
"39.20000","3.26692","3675.85"
"39.40000","3.28365","3688.86"
"39.60000","3.30059","3701.9"
"39.80000","3.31692","3715.6"
"40.00000","3.33325","3728.48"
"40.20000","3.35068","3742.32"
"40.40000","3.36721","3754.9"
"40.60000","3.38334","3765.49"
"40.80000","3.40027","3777.66"
"41.00000","3.41701","3783.03"
"41.20000","3.43313","3792.09"
"41.40000","3.45027","3804.04"
"41.60000","3.46710","3815.31"
"41.80000","3.48373","3825.36"
"42.00000","3.50016","3835.71"
"42.20000","3.51699","3845.32"
"42.40000","3.53393","3854.81"
"42.60000","3.55005","3862.8"
"42.80000","3.56699","3794.51"
"43.00000","3.58382","3812.66"
"43.20000","3.60015","3826.7"
"43.40000","3.61668","3838.38"
"43.60000","3.63391","3851.35"
"43.80000","3.65004","3862.12"
"44.00000","3.66677","3872.73"
"44.20000","3.68350","3882.95"
"44.40000","3.70034","3892.51"
"44.60000","3.71666","3900.81"
"44.80000","3.73330","3909.21"
"45.00000","3.75063","3918.44"
"45.20000","3.76696","3926.72"
"45.40000","3.78339","3932.52"
"45.60000","3.80052","3940.44"
"45.80000","3.81695","3946.82"
"46.00000","3.83328","3950.07"
"46.20000","3.85022","3955.95"
"46.40000","3.86695","3960.32"
"46.60000","3.88358","3964.15"
"46.80000","3.90001","3966.46"
"47.00000","3.91664","3969.24"
"47.20000","3.93387","3972.84"
"47.40000","3.94990","3971.99"
"47.60000","3.96744","3973.73"
"47.80000","3.98377","3971.88"
"48.00000","4.00030","3968.83"
"48.20000","4.01683","3959.47"
"48.40000","4.03386","3940.96"
"48.58600","4.04918","3643.74"
"48.62200","4.05241","3056.29"
"48.63000","4.05321","2278.4"