File: Data_Processing/Tensile-Data/Sequence_25.csv
General : Start date,"10/29/2024 10:07 AM"
General : End date,"10/29/2024 10:08 AM"
Specimen notes : Specimen note 1,"Day 2, blue, 215, batch 11, seq 25"
Test : Rate 1,"5.00000",mm/min

Time,Extension,Load
(s),(mm),(N)
"0.00000","0.00000","0.81200"
"0.20000","0.01270","16.40179"
"0.40000","0.03326","55.06246"
"0.60000","0.04989","82.11287"
"0.80000","0.06662","108.094"
"1.00000","0.08386","135.476"
"1.20000","0.10039","162.622"
"1.40000","0.11682","187.835"
"1.60000","0.13385","213.11"
"1.80000","0.15008","237.479"
"2.00000","0.16681","263.198"
"2.20000","0.18324","288.409"
"2.40000","0.20058","314.004"
"2.60000","0.21671","337.715"
"2.80000","0.23324","362.21"
"3.00000","0.25027","385.99"
"3.20000","0.26720","409.277"
"3.40000","0.28313","431.45"
"3.60000","0.30057","455.777"
"3.80000","0.31720","478.677"
"4.00000","0.33322","498.573"
"4.20000","0.35016","521.23"
"4.40000","0.36709","543.181"
"4.60000","0.38382","563.997"
"4.80000","0.39995","584.879"
"5.00000","0.41688","607.181"
"5.20000","0.43372","627.768"
"5.40000","0.44984","647.728"
"5.60000","0.46688","668.504"
"5.80000","0.48401","688.959"
"6.00000","0.50024","706.766"
"6.20000","0.51677","725.273"
"6.40000","0.53380","743.257"
"6.60000","0.55023","760.356"
"6.80000","0.56666","777.245"
"7.00000","0.58360","795.896"
"7.20000","0.60013","812.797"
"7.40000","0.61686","830.454"
"7.60000","0.63339","847.873"
"7.80000","0.65042","865.4"
"8.00000","0.66685","881.638"
"8.20000","0.68338","896.737"
"8.40000","0.70021","914.125"
"8.60000","0.71695","929.35"
"8.80000","0.73327","945.461"
"9.00000","0.75011","962.495"
"9.20000","0.76704","980.176"
"9.40000","0.78357","995.454"
"9.60000","0.80000","1011.48"
"9.80000","0.81693","1027.58"
"10.00000","0.83366","1043.34"
"10.20000","0.84999","1058.77"
"10.40000","0.86713","1075.79"
"10.60000","0.88366","1091.24"
"10.80000","0.90029","1106.6"
"11.00000","0.91672","1121.68"
"11.20000","0.93355","1138.04"
"11.40000","0.95018","1153.21"
"11.60000","0.96641","1169.89"
"11.80000","0.98354","1185.35"
"12.00000","1.00038","1201.4"
"12.20000","1.01660","1217.42"
"12.40000","1.03354","1233.47"
"12.60000","1.05037","1248.91"
"12.80000","1.06670","1264.39"
"13.00000","1.08343","1280.07"
"13.20000","1.10057","1296.06"
"13.40000","1.11710","1311.18"
"13.60000","1.13353","1326.11"
"13.80000","1.14995","1342.8"
"14.00000","1.16648","1356.16"
"14.20000","1.18301","1372.15"
"14.40000","1.19995","1387.56"
"14.60000","1.21688","1404.24"
"14.80000","1.23371","1418.72"
"15.00000","1.24974","1432.83"
"15.20000","1.26718","1449.03"
"15.40000","1.28341","1463.07"
"15.60000","1.30034","1478.91"
"15.80000","1.31707","1494.44"
"16.00000","1.33380","1509.17"
"16.20000","1.35023","1523.56"
"16.40000","1.36656","1538.65"
"16.60000","1.38370","1554.37"
"16.80000","1.40053","1567.97"
"17.00000","1.41645","1583"
"17.20000","1.43359","1597.89"
"17.40000","1.45032","1613.2"
"17.60000","1.46655","1628.86"
"17.80000","1.48348","1644.14"
"18.00000","1.50041","1658.77"
"18.20000","1.51705","1673.52"
"18.40000","1.53337","1688.56"
"18.60000","1.55011","1702.49"
"18.80000","1.56724","1717.76"
"19.00000","1.58327","1732.77"
"19.20000","1.60020","1749.04"
"19.40000","1.61713","1763.4"
"19.60000","1.63346","1777.82"
"19.80000","1.64989","1793.09"
"20.00000","1.66713","1809.01"
"20.20000","1.68325","1824.33"
"20.40000","1.69999","1838.78"
"20.60000","1.71712","1855.25"
"20.80000","1.73365","1869.1"
"21.00000","1.75008","1884.63"
"21.20000","1.76671","1900.16"
"21.40000","1.78395","1916.56"
"21.60000","1.80048","1931.85"
"21.80000","1.81660","1945.68"
"22.00000","1.83394","1961.43"
"22.20000","1.85027","1977.05"
"22.40000","1.86670","1991.47"
"22.60000","1.88343","2006.8"
"22.80000","1.90016","2022.4"
"23.00000","1.91689","2038.56"
"23.20000","1.93332","2053.31"
"23.40000","1.95016","2069.87"
"23.60000","1.96719","2085.14"
"23.80000","1.98322","2098.29"
"24.00000","2.00025","2113.72"
"24.20000","2.01708","2129.23"
"24.40000","2.03341","2144.04"
"24.60000","2.05004","2159.67"
"24.80000","2.06718","2175.61"
"25.00000","2.08340","2191.13"
"25.20000","2.09993","2205.92"
"25.40000","2.11687","2220.42"
"25.60000","2.13370","2235.35"
"25.80000","2.14993","2250.64"
"26.00000","2.16646","2265.72"
"26.20000","2.18379","2281.72"
"26.40000","2.20033","2296.88"
"26.60000","2.21655","2311.19"
"26.80000","2.23409","2326.82"
"27.00000","2.25032","2341.25"
"27.20000","2.26655","2355.53"
"27.40000","2.28368","2371.03"
"27.60000","2.30041","2384.12"
"27.80000","2.31674","2399.94"
"28.00000","2.33337","2416.67"
"28.20000","2.35021","2431.42"
"28.40000","2.36724","2445.35"
"28.60000","2.38316","2461.18"
"28.80000","2.40040","2476.51"
"29.00000","2.41703","2491.01"
"29.20000","2.43326","2505.55"
"29.40000","2.45009","2518.86"
"29.60000","2.46703","2533.94"
"29.80000","2.48356","2548.32"
"30.00000","2.50009","2563.09"
"30.20000","2.51702","2578.16"
"30.40000","2.53365","2593.74"
"30.60000","2.54998","2606.37"
"30.80000","2.56691","2621.34"
"31.00000","2.58395","2636.38"
"31.20000","2.59987","2650.01"
"31.40000","2.61670","2665.43"
"31.60000","2.63384","2680.94"
"31.80000","2.65007","2695.81"
"32.00000","2.66680","2710.67"
"32.20000","2.68363","2724.98"
"32.40000","2.70066","2740.32"
"32.60000","2.71679","2752.93"
"32.80000","2.73362","2767.83"
"33.00000","2.75015","2782.86"
"33.20000","2.76689","2797.86"
"33.40000","2.78321","2811.49"
"33.60000","2.80035","2826.2"
"33.80000","2.81698","2840.8"
"34.00000","2.83321","2855.28"
"34.20000","2.85034","2871.02"
"34.40000","2.86687","2884.37"
"34.60000","2.88371","2898.5"
"34.80000","2.90034","2913.91"
"35.00000","2.91727","2927.69"
"35.20000","2.93370","2941.64"
"35.40000","2.94993","2955.52"
"35.60000","2.96686","2970.73"
"35.80000","2.98379","2984.45"
"36.00000","3.00002","2997.81"
"36.20000","3.01665","3011.51"
"36.40000","3.03369","3026.16"
"36.60000","3.05002","3040.51"
"36.80000","3.06675","3054.1"
"37.00000","3.08368","3068.68"
"37.20000","3.10041","3083.21"
"37.40000","3.11664","3097.16"
"37.60000","3.13347","3111.16"
"37.80000","3.15041","3124.5"
"38.00000","3.16694","3138.07"
"38.20000","3.18337","3151.03"
"38.40000","3.20040","3166.5"
"38.60000","3.21713","3180.14"
"38.80000","3.23316","3193.89"
"39.00000","3.25039","3208.68"
"39.20000","3.26682","3221.81"
"39.40000","3.28335","3236.29"
"39.60000","3.30008","3249.14"
"39.80000","3.31702","3263.52"
"40.00000","3.33345","3276.82"
"40.20000","3.34988","3289.72"
"40.40000","3.36701","3304.32"
"40.60000","3.38384","3317.52"
"40.80000","3.39987","3331.98"
"41.00000","3.41711","3345.3"
"41.20000","3.43394","3358.63"
"41.40000","3.44976","3371.65"
"41.60000","3.46649","3384.2"
"41.80000","3.48363","3398.02"
"42.00000","3.50026","3411.18"
"42.20000","3.51669","3424.42"
"42.40000","3.53332","3438.22"
"42.60000","3.55046","3451.24"
"42.80000","3.56658","3464.18"
"43.00000","3.58362","3478.48"
"43.20000","3.60045","3491.01"
"43.40000","3.61708","3502.98"
"43.60000","3.63321","3515.99"
"43.80000","3.65054","3529.63"
"44.00000","3.66687","3543.01"
"44.20000","3.68360","3555.52"
"44.40000","3.70024","3567.32"
"44.60000","3.71687","3580.15"
"44.80000","3.73319","3592.73"
"45.00000","3.74993","3605.09"
"45.20000","3.76716","3617.6"
"45.40000","3.78369","3629.08"
"45.60000","3.80002","3641.83"
"45.80000","3.81726","3654.92"
"46.00000","3.83379","3666.22"
"46.20000","3.85012","3678.88"
"46.40000","3.86695","3690.61"
"46.60000","3.88378","3702.1"
"46.80000","3.90021","3712.78"
"47.00000","3.91684","3725.48"
"47.20000","3.93337","3737.4"
"47.40000","3.95030","3749.86"
"47.60000","3.96653","3760.69"
"47.80000","3.98367","3772.74"
"48.00000","4.00030","3783.76"
"48.20000","4.01683","3795.25"
"48.40000","4.03336","3806.41"
"48.60000","4.05059","3817.82"
"48.80000","4.06702","3828.11"
"49.00000","4.08345","3838.49"
"49.20000","4.10049","3849.84"
"49.40000","4.11702","3860.73"
"49.60000","4.13314","3870.79"
"49.80000","4.14977","3881.82"
"50.00000","4.16711","3892.33"
"50.20000","4.18354","3901.77"
"50.40000","4.19977","3910.41"
"50.60000","4.21721","3921.36"
"50.80000","4.23384","3930.84"
"51.00000","4.24996","3939.74"
"51.20000","4.26680","3949.22"
"51.40000","4.28373","3958.64"
"51.60000","4.30016","3966.94"
"51.80000","4.31679","3974.54"
"52.00000","4.33352","3982.08"
"52.20000","4.35056","3989.83"
"52.40000","4.36648","3995.57"
"52.60000","4.38372","4002.89"
"52.80000","4.40025","4009.34"
"53.00000","4.41627","4013.13"
"53.20000","4.43341","4018.65"
"53.40000","4.45034","4023.45"
"53.60000","4.46697","4025.72"
"53.80000","4.48340","4028.26"
"54.00000","4.50064","4029.97"
"54.20000","4.51727","4029.66"
"54.40000","4.53319","4027.39"
"54.60000","4.55023","4025.51"
"54.80000","4.56716","4023.95"
"55.00000","4.58349","4017.82"
"55.20000","4.60012","4010.73"
"55.40000","4.61715","4001.96"
"55.60000","4.63338","3988.69"
"55.80000","4.64971","3969.27"
"56.00000","4.66695","3942.95"
"56.20000","4.68378","3888.74"
"56.32000","4.69386","3511.65"
"56.32800","4.69467","2756.57"
"56.33200","4.69507","2319.95"