File: Data_Processing/Tensile-Data/Sequence_44.csv
General : Start date,"10/29/2024 10:52 AM"
General : End date,"10/29/2024 10:53 AM"
Specimen notes : Specimen note 1,"Day 2, red, 230, batch 5, seq 44"
Test : Rate 1,"5.00000",mm/min

Time,Extension,Load
(s),(mm),(N)
"0.00000","0.00000","0.39360"
"0.20000","0.01119","13.76915"
"0.40000","0.03256","56.15548"
"0.60000","0.04949","83.28189"
"0.80000","0.06683","112.09"
"1.00000","0.08346","140.362"
"1.20000","0.09999","167.945"
"1.40000","0.11702","195.359"
"1.60000","0.13375","222.743"
"1.80000","0.15028","250.406"
"2.00000","0.16671","276.468"
"2.20000","0.18385","303.446"
"2.40000","0.20018","329.702"
"2.60000","0.21661","355.881"
"2.80000","0.23374","383.711"
"3.00000","0.25057","408.68"
"3.20000","0.26660","434.285"
"3.40000","0.28353","459.07"
"3.60000","0.30016","483.767"
"3.80000","0.31669","508.253"
"4.00000","0.33332","531.808"
"4.20000","0.35026","557.119"
"4.40000","0.36689","578.774"
"4.60000","0.38332","602.268"
"4.80000","0.40055","624.943"
"5.00000","0.41729","645.907"
"5.20000","0.43361","667.033"
"5.40000","0.44994","685.817"
"5.60000","0.46708","707.688"
"5.80000","0.48361","727.422"
"6.00000","0.49984","746.35"
"6.20000","0.51687","767.865"
"6.40000","0.53370","785.843"
"6.60000","0.55003","804.581"
"6.80000","0.56676","824.284"
"7.00000","0.58370","843.773"
"7.20000","0.60023","862.509"
"7.40000","0.61666","880.362"
"7.60000","0.63369","900.332"
"7.80000","0.65042","918.358"
"8.00000","0.66655","934.175"
"8.20000","0.68368","951.668"
"8.40000","0.70031","966.88"
"8.60000","0.71674","983.047"
"8.80000","0.73317","999.155"
"9.00000","0.75031","1015.78"
"9.20000","0.76684","1031.94"
"9.40000","0.78286","1046.5"
"9.60000","0.80040","1062.51"
"9.80000","0.81653","1078.25"
"10.00000","0.83366","1094.1"
"10.20000","0.85019","1109.5"
"10.40000","0.86723","1125.44"
"10.60000","0.88356","1140.93"
"10.80000","0.89999","1155.06"
"11.00000","0.91692","1170.61"
"11.20000","0.93385","1185.74"
"11.40000","0.94988","1200.93"
"11.60000","0.96681","1215.84"
"11.80000","0.98375","1230.56"
"12.00000","0.99987","1244.6"
"12.20000","1.01660","1257.93"
"12.40000","1.03374","1273.05"
"12.60000","1.05017","1286.42"
"12.80000","1.06660","1299.81"
"13.00000","1.08343","1315.45"
"13.20000","1.10057","1331.57"
"13.40000","1.11669","1345.06"
"13.60000","1.13363","1360.08"
"13.80000","1.15036","1373.94"
"14.00000","1.16689","1390.23"
"14.20000","1.18312","1404.53"
"14.40000","1.20065","1419.82"
"14.60000","1.21678","1434.9"
"14.80000","1.23321","1449.23"
"15.00000","1.25014","1463.72"
"15.20000","1.26677","1479.33"
"15.40000","1.28330","1493.41"
"15.60000","1.30004","1508.55"
"15.80000","1.31707","1523.16"
"16.00000","1.33380","1538.33"
"16.20000","1.34983","1552.85"
"16.40000","1.36706","1569.47"
"16.60000","1.38380","1584.08"
"16.80000","1.39992","1598.75"
"17.00000","1.41676","1614.45"
"17.20000","1.43369","1630.08"
"17.40000","1.45002","1645.57"
"17.60000","1.46665","1659.31"
"17.80000","1.48338","1675.24"
"18.00000","1.50062","1690.6"
"18.20000","1.51644","1704.7"
"18.40000","1.53358","1720.81"
"18.60000","1.55041","1735.71"
"18.80000","1.56694","1751.06"
"19.00000","1.58327","1765.66"
"19.20000","1.60060","1781.63"
"19.40000","1.61683","1795.71"
"19.60000","1.63336","1811.1"
"19.80000","1.65019","1827.06"
"20.00000","1.66703","1841.99"
"20.20000","1.68325","1856.06"
"20.40000","1.69978","1872.83"
"20.60000","1.71702","1888.36"
"20.80000","1.73355","1903.25"
"21.00000","1.74988","1917.99"
"21.20000","1.76732","1934.98"
"21.40000","1.78374","1949.81"
"21.60000","1.80007","1964.21"
"21.80000","1.81691","1979.54"
"22.00000","1.83394","1995.18"
"22.20000","1.85017","2010.39"
"22.40000","1.86670","2026.37"
"22.60000","1.88343","2041.27"
"22.80000","1.90046","2057.18"
"23.00000","1.91639","2073.12"
"23.20000","1.93373","2088.56"
"23.40000","1.95036","2104.39"
"23.60000","1.96638","2119.8"
"23.80000","1.98342","2134.14"
"24.00000","2.00035","2150.39"
"24.20000","2.01698","2166.14"
"24.40000","2.03351","2181.84"
"24.60000","2.05065","2197.54"
"24.80000","2.06708","2214.08"
"25.00000","2.08320","2228.51"
"25.20000","2.10024","2244.1"
"25.40000","2.11707","2260.6"
"25.60000","2.13330","2276.74"
"25.80000","2.14983","2291.06"
"26.00000","2.16696","2307.92"
"26.20000","2.18339","2322.98"
"26.40000","2.20002","2338.36"
"26.60000","2.21716","2354.89"
"26.80000","2.23379","2370.4"
"27.00000","2.25002","2385.67"
"27.20000","2.26685","2401.42"
"27.40000","2.28348","2417.78"
"27.60000","2.30041","2434.65"
"27.80000","2.31654","2449.5"
"28.00000","2.33368","2465.86"
"28.20000","2.35021","2482.42"
"28.40000","2.36653","2497.85"
"28.60000","2.38357","2513.34"
"28.80000","2.40030","2528.98"
"29.00000","2.41683","2543.92"
"29.20000","2.43346","2560.35"
"29.40000","2.45029","2575.12"
"29.60000","2.46703","2591.04"
"29.80000","2.48335","2606.49"
"30.00000","2.50019","2623.08"
"30.20000","2.51702","2639.01"
"30.40000","2.53335","2654.67"
"30.60000","2.55008","2670.85"
"30.80000","2.56701","2687.56"
"31.00000","2.58344","2702.46"
"31.20000","2.59997","2718.29"
"31.40000","2.61691","2734.56"
"31.60000","2.63364","2751.23"
"31.80000","2.65007","2765.74"
"32.00000","2.66680","2782.16"
"32.20000","2.68393","2798.43"
"32.40000","2.70036","2813.31"
"32.60000","2.71669","2828.85"
"32.80000","2.73383","2845.47"
"33.00000","2.75036","2860.87"
"33.20000","2.76658","2876"
"33.40000","2.78372","2892.08"
"33.60000","2.80005","2908.8"
"33.80000","2.81658","2924.03"
"34.00000","2.83311","2939.05"
"34.20000","2.85024","2954.19"
"34.40000","2.86687","2969.45"
"34.60000","2.88330","2985.83"
"34.80000","2.90044","3001.85"
"35.00000","2.91707","3016.8"
"35.20000","2.93320","3031.4"
"35.40000","2.95043","3047.8"
"35.60000","2.96726","3063.89"
"35.80000","2.98329","3080.19"
"36.00000","3.00012","3093.96"
"36.20000","3.01695","3110.68"
"36.40000","3.03369","3126.5"
"36.60000","3.04971","3140.92"
"36.80000","3.06655","3156.31"
"37.00000","3.08348","3172.17"
"37.20000","3.09991","3187.39"
"37.40000","3.11684","3202.46"
"37.60000","3.13367","3218.68"
"37.80000","3.15031","3232.82"
"38.00000","3.16653","3247.78"
"38.20000","3.18407","3263.44"
"38.40000","3.20000","3278.95"
"38.60000","3.21693","3295.25"
"38.80000","3.23376","3310.11"
"39.00000","3.25039","3325.17"
"39.20000","3.26662","3340.11"
"39.40000","3.28325","3354.57"
"39.60000","3.30049","3370.24"
"39.80000","3.31702","3385.89"
"40.00000","3.33314","3399.3"
"40.20000","3.35028","3414.71"
"40.40000","3.36691","3429.94"
"40.60000","3.38334","3445.14"
"40.80000","3.40007","3460.24"
"41.00000","3.41711","3475.42"
"41.20000","3.43364","3491.13"
"41.40000","3.44996","3504.77"
"41.60000","3.46670","3519.05"
"41.80000","3.48383","3535.38"
"42.00000","3.49996","3548.07"
"42.20000","3.51689","3563.23"
"42.40000","3.53352","3578.52"
"42.60000","3.55005","3592.22"
"42.80000","3.56648","3605.96"
"43.00000","3.58382","3621.14"
"43.20000","3.60015","3635.18"
"43.40000","3.61678","3649.23"
"43.60000","3.63361","3663.63"
"43.80000","3.65044","3677.76"
"44.00000","3.66657","3691.28"
"44.20000","3.68350","3705.37"
"44.40000","3.70044","3718.84"
"44.60000","3.71687","3732.28"
"44.80000","3.73309","3745.66"
"45.00000","3.75043","3759.41"
"45.20000","3.76706","3773.25"
"45.40000","3.78339","3786.01"
"45.60000","3.80022","3798.42"
"45.80000","3.81685","3811.44"
"46.00000","3.83348","3825.46"
"46.20000","3.84991","3836.98"
"46.40000","3.86695","3850.63"
"46.60000","3.88398","3862.85"
"46.80000","3.89991","3874.32"
"47.00000","3.91694","3886.86"
"47.20000","3.93357","3897.95"
"47.40000","3.95000","3909.79"
"47.60000","3.96673","3921.49"
"47.80000","3.98377","3932.92"
"48.00000","3.99999","3942.8"
"48.20000","4.01663","3954.29"
"48.40000","4.03376","3965.21"
"48.60000","4.05039","3974.83"
"48.80000","4.06672","3984.95"
"49.00000","4.08345","3994.55"
"49.20000","4.10039","4004.26"
"49.40000","4.11692","4013.5"
"49.60000","4.13324","4021.24"
"49.80000","4.15078","4028.84"
"50.00000","4.16681","4036.34"
"50.20000","4.18324","4043.02"
"50.40000","4.20027","4050.2"
"50.60000","4.21700","4055.63"
"50.80000","4.23333","4060.12"
"51.00000","4.25006","4064.24"
"51.20000","4.26690","4067.46"
"51.40000","4.28393","4070.6"
"51.60000","4.30006","4071"
"51.80000","4.31719","4071.72"
"52.00000","4.33372","4069.83"
"52.20000","4.35015","4066.14"
"52.40000","4.36678","4059.67"
"52.60000","4.38341","4051.44"
"52.80000","4.39994","4040.94"
"53.00000","4.41657","4025.91"
"53.20000","4.43351","4006.69"
"53.40000","4.45034","3980.65"
"53.60000","4.46687","3941.27"
"53.80000","4.48360","3875.93"
"53.96400","4.49771","3484.66"
"53.97200","4.49852","2749.9"
"53.97800","4.49913","2107.02"