File: Data_Processing/Tensile-Data/Sequence_40.csv
General : Start date,"10/29/2024 10:44 AM"
General : End date,"10/29/2024 10:45 AM"
Specimen notes : Specimen note 1,"Day 2, green, 230, batch 1, seq 40"
Test : Rate 1,"5.00000",mm/min

Time,Extension,Load
(s),(mm),(N)
"0.00000","0.00000","0.63567"
"0.20000","0.00756","6.56460"
"0.40000","0.03205","52.10619"
"0.60000","0.04909","80.86390"
"0.80000","0.06683","109.629"
"1.00000","0.08366","136.533"
"1.20000","0.10019","162.904"
"1.40000","0.11682","189.442"
"1.60000","0.13385","216.588"
"1.80000","0.15008","242.544"
"2.00000","0.16671","268.212"
"2.20000","0.18365","295.437"
"2.40000","0.20038","321.818"
"2.60000","0.21650","345.997"
"2.80000","0.23344","373.072"
"3.00000","0.25017","398.6"
"3.20000","0.26660","422.908"
"3.40000","0.28333","448.915"
"3.60000","0.30026","474.304"
"3.80000","0.31700","497.691"
"4.00000","0.33312","522.281"
"4.20000","0.35056","547.635"
"4.40000","0.36719","570.711"
"4.60000","0.38332","593.23"
"4.80000","0.40025","616.862"
"5.00000","0.41708","639.882"
"5.20000","0.43331","661.763"
"5.40000","0.44984","684.017"
"5.60000","0.46698","706.87"
"5.80000","0.48351","728.167"
"6.00000","0.49973","749.242"
"6.20000","0.51687","770.912"
"6.40000","0.53360","791.085"
"6.60000","0.55013","812.501"
"6.80000","0.56676","833.026"
"7.00000","0.58380","854.83"
"7.20000","0.60023","874.702"
"7.40000","0.61655","891.118"
"7.60000","0.63339","908.369"
"7.80000","0.65052","926.324"
"8.00000","0.66655","942.372"
"8.20000","0.68358","959.138"
"8.40000","0.70001","976.28"
"8.60000","0.71644","993.963"
"8.80000","0.73307","1011.09"
"9.00000","0.75041","1029.37"
"9.20000","0.76654","1045.51"
"9.40000","0.78337","1063.94"
"9.60000","0.80050","1080.77"
"9.80000","0.81713","1097.93"
"10.00000","0.83326","1113.9"
"10.20000","0.85019","1130.9"
"10.40000","0.86703","1148.4"
"10.60000","0.88356","1165.18"
"10.80000","0.89978","1181.46"
"11.00000","0.91712","1199.85"
"11.20000","0.93355","1216.12"
"11.40000","0.94978","1232.82"
"11.60000","0.96691","1250.62"
"11.80000","0.98365","1267.98"
"12.00000","1.00018","1285.57"
"12.20000","1.01671","1301.81"
"12.40000","1.03354","1319.72"
"12.60000","1.05057","1336.95"
"12.80000","1.06660","1353.11"
"13.00000","1.08383","1371.84"
"13.20000","1.10026","1387.68"
"13.40000","1.11669","1405.72"
"13.60000","1.13342","1422.19"
"13.80000","1.15026","1439.12"
"14.00000","1.16669","1455.8"
"14.20000","1.18291","1471.54"
"14.40000","1.20015","1490.57"
"14.60000","1.21688","1506.94"
"14.80000","1.23331","1522.37"
"15.00000","1.25014","1539.85"
"15.20000","1.26718","1555.72"
"15.40000","1.28341","1572.23"
"15.60000","1.29973","1589.12"
"15.80000","1.31727","1606.63"
"16.00000","1.33350","1622.23"
"16.20000","1.34993","1639.28"
"16.40000","1.36706","1657.63"
"16.60000","1.38359","1673.17"
"16.80000","1.39992","1689.71"
"17.00000","1.41676","1705.38"
"17.20000","1.43339","1722.44"
"17.40000","1.45022","1737.58"
"17.60000","1.46635","1755.03"
"17.80000","1.48378","1771.02"
"18.00000","1.50031","1787.32"
"18.20000","1.51664","1803.98"
"18.40000","1.53358","1819.08"
"18.60000","1.55031","1834.1"
"18.80000","1.56684","1848.59"
"19.00000","1.58327","1863.96"
"19.20000","1.60030","1878.98"
"19.40000","1.61693","1893.49"
"19.60000","1.63306","1908.01"
"19.80000","1.65009","1923.17"
"20.00000","1.66723","1938"
"20.20000","1.68325","1952.5"
"20.40000","1.70009","1968.55"
"20.60000","1.71712","1982.61"
"20.80000","1.73345","1997.83"
"21.00000","1.74998","2012.43"
"21.20000","1.76711","2028.04"
"21.40000","1.78385","2043.49"
"21.60000","1.80007","2058.34"
"21.80000","1.81670","2072.92"
"22.00000","1.83384","2087.19"
"22.20000","1.85007","2102.85"
"22.40000","1.86650","2118.46"
"22.60000","1.88363","2133.56"
"22.80000","1.90026","2147.87"
"23.00000","1.91639","2162.3"
"23.20000","1.93373","2179.47"
"23.40000","1.95016","2194.45"
"23.60000","1.96689","2208.32"
"23.80000","1.98362","2224.69"
"24.00000","2.00045","2240.21"
"24.20000","2.01678","2254.09"
"24.40000","2.03311","2268.85"
"24.60000","2.05024","2284.84"
"24.80000","2.06697","2299.59"
"25.00000","2.08300","2314.07"
"25.20000","2.10004","2329.21"
"25.40000","2.11687","2344.84"
"25.60000","2.13330","2360.64"
"25.80000","2.15003","2375.29"
"26.00000","2.16716","2391.72"
"26.20000","2.18379","2406.33"
"26.40000","2.19992","2420.64"
"26.60000","2.21686","2436.42"
"26.80000","2.23369","2452.21"
"27.00000","2.25002","2466.3"
"27.20000","2.26665","2480.68"
"27.40000","2.28348","2497.78"
"27.60000","2.30011","2512.18"
"27.80000","2.31634","2526.16"
"28.00000","2.33368","2541.7"
"28.20000","2.35021","2556.48"
"28.40000","2.36674","2571.25"
"28.60000","2.38347","2585.44"
"28.80000","2.40040","2601.93"
"29.00000","2.41663","2615.53"
"29.20000","2.43326","2631.02"
"29.40000","2.45019","2646.85"
"29.60000","2.46703","2661.8"
"29.80000","2.48305","2675.69"
"30.00000","2.50029","2692.55"
"30.20000","2.51692","2706.75"
"30.40000","2.53315","2722.45"
"30.60000","2.54998","2737.03"
"30.80000","2.56681","2752.03"
"31.00000","2.58364","2766.9"
"31.20000","2.60007","2781.8"
"31.40000","2.61691","2797.65"
"31.60000","2.63404","2812.59"
"31.80000","2.64986","2826.22"
"32.00000","2.66700","2841.67"
"32.20000","2.68373","2857.66"
"32.40000","2.70036","2871.95"
"32.60000","2.71649","2886.63"
"32.80000","2.73403","2903.5"
"33.00000","2.74995","2916.71"
"33.20000","2.76658","2931.75"
"33.40000","2.78342","2947.58"
"33.60000","2.80015","2961.49"
"33.80000","2.81648","2976.18"
"34.00000","2.83321","2991.2"
"34.20000","2.85044","3007.65"
"34.40000","2.86687","3020.67"
"34.60000","2.88310","3035.13"
"34.80000","2.90054","3051.15"
"35.00000","2.91697","3065.84"
"35.20000","2.93330","3080.91"
"35.40000","2.95023","3095.16"
"35.60000","2.96706","3109.37"
"35.80000","2.98329","3123.38"
"36.00000","2.99992","3137.61"
"36.20000","3.01645","3151.28"
"36.40000","3.03349","3166.39"
"36.60000","3.04971","3180.47"
"36.80000","3.06715","3195.4"
"37.00000","3.08358","3209.27"
"37.20000","3.10011","3223.94"
"37.40000","3.11684","3237.74"
"37.60000","3.13377","3252.14"
"37.80000","3.15000","3266.44"
"38.00000","3.16694","3281.1"
"38.20000","3.18367","3295.13"
"38.40000","3.20030","3309.28"
"38.60000","3.21663","3322.69"
"38.80000","3.23326","3336.75"
"39.00000","3.25019","3351.59"
"39.20000","3.26682","3365.05"
"39.40000","3.28325","3378.31"
"39.60000","3.30039","3392.1"
"39.80000","3.31682","3406.12"
"40.00000","3.33325","3419.34"
"40.20000","3.35038","3434.02"
"40.40000","3.36701","3447.2"
"40.60000","3.38324","3460.42"
"40.80000","3.39997","3474.42"
"41.00000","3.41721","3487.88"
"41.20000","3.43384","3502.21"
"41.40000","3.44976","3514.3"
"41.60000","3.46680","3527.92"
"41.80000","3.48363","3541.69"
"42.00000","3.49986","3554.44"
"42.20000","3.51709","3567.38"
"42.40000","3.53362","3580.3"
"42.60000","3.55015","3593.34"
"42.80000","3.56658","3605.5"
"43.00000","3.58362","3617.83"
"43.20000","3.60025","3630.95"
"43.40000","3.61658","3642.77"
"43.60000","3.63371","3656.46"
"43.80000","3.65054","3668.14"
"44.00000","3.66647","3680.08"
"44.20000","3.68310","3692.09"
"44.40000","3.70054","3704.74"
"44.60000","3.71677","3716.62"
"44.80000","3.73330","3727.27"
"45.00000","3.75033","3739.4"
"45.20000","3.76706","3751.06"
"45.40000","3.78319","3760.98"
"45.60000","3.80022","3772.46"
"45.80000","3.81695","3782.93"
"46.00000","3.83359","3792.68"
"46.20000","3.84991","3802.45"
"46.40000","3.86705","3812.57"
"46.60000","3.88338","3821.54"
"46.80000","3.89981","3829.98"
"47.00000","3.91704","3839.37"
"47.20000","3.93347","3846.33"
"47.40000","3.94990","3854.14"
"47.60000","3.96673","3860.97"
"47.80000","3.98377","3867.58"
"48.00000","4.00010","3872.27"
"48.20000","4.01673","3875.92"
"48.40000","4.03336","3879.54"
"48.60000","4.05039","3882"
"48.80000","4.06662","3880.76"
"49.00000","4.08345","3878.29"
"49.20000","4.10059","3873.72"
"49.40000","4.11661","3862.86"
"49.60000","4.13324","3841.96"
"49.80000","4.15038","3801.33"
"49.95200","4.16318","3402.65"
"49.96000","4.16389","2654.06"
"49.96400","4.16429","2226.08"