File: Data_Processing/Tensile-Data/Sequence_21.csv
General : Start date,"10/29/2024 9:53 AM"
General : End date,"10/29/2024 9:54 AM"
Specimen notes : Specimen note 1,"Day 2, black, 215, batch 9, seq 21"
Test : Rate 1,"5.00000",mm/min

Time,Extension,Load
(s),(mm),(N)
"0.00000","-0.00020","2.09135"
"0.20000","0.01068","13.23072"
"0.40000","0.03246","57.10105"
"0.60000","0.04899","85.59314"
"0.80000","0.06662","115.639"
"1.00000","0.08346","143.789"
"1.20000","0.09968","170.843"
"1.40000","0.11672","199.894"
"1.60000","0.13385","228.213"
"1.80000","0.14998","255.475"
"2.00000","0.16681","283.301"
"2.20000","0.18375","313.559"
"2.40000","0.20028","341.338"
"2.60000","0.21640","368.598"
"2.80000","0.23344","399.182"
"3.00000","0.25037","426.592"
"3.20000","0.26660","453.359"
"3.40000","0.28353","481.403"
"3.60000","0.30026","509.999"
"3.80000","0.31659","537.37"
"4.00000","0.33292","564.899"
"4.20000","0.35026","593.025"
"4.40000","0.36699","621.619"
"4.60000","0.38312","649.265"
"4.80000","0.40025","674.925"
"5.00000","0.41698","703.007"
"5.20000","0.43321","729.082"
"5.40000","0.44994","756.968"
"5.60000","0.46698","785.056"
"5.80000","0.48351","811.509"
"6.00000","0.49984","837.583"
"6.20000","0.51687","864.046"
"6.40000","0.53350","890.466"
"6.60000","0.54983","917.396"
"6.80000","0.56676","945.985"
"7.00000","0.58370","972.194"
"7.20000","0.59982","999.145"
"7.40000","0.61666","1024.35"
"7.60000","0.63349","1052.18"
"7.80000","0.65022","1078.14"
"8.00000","0.66655","1103.09"
"8.20000","0.68348","1129.48"
"8.40000","0.70011","1155.82"
"8.60000","0.71654","1182.37"
"8.80000","0.73327","1207.93"
"9.00000","0.75031","1233.99"
"9.20000","0.76674","1259.13"
"9.40000","0.78317","1284.39"
"9.60000","0.80020","1309.57"
"9.80000","0.81683","1334.94"
"10.00000","0.83306","1358.95"
"10.20000","0.84989","1384.19"
"10.40000","0.86683","1408.99"
"10.60000","0.88336","1432.67"
"10.80000","0.89978","1457.97"
"11.00000","0.91712","1482.21"
"11.20000","0.93345","1506.51"
"11.40000","0.94988","1529.91"
"11.60000","0.96671","1554.24"
"11.80000","0.98344","1579.04"
"12.00000","0.99997","1603.04"
"12.20000","1.01671","1627.43"
"12.40000","1.03283","1649.18"
"12.60000","1.04987","1673.93"
"12.80000","1.06620","1695.95"
"13.00000","1.08333","1719.88"
"13.20000","1.10016","1742.08"
"13.40000","1.11639","1764.28"
"13.60000","1.13342","1787.71"
"13.80000","1.14995","1811.66"
"14.00000","1.16669","1833.66"
"14.20000","1.18332","1856.63"
"14.40000","1.20025","1879.85"
"14.60000","1.21678","1902.28"
"14.80000","1.23311","1922.93"
"15.00000","1.24984","1944.87"
"15.20000","1.26708","1967.39"
"15.40000","1.28341","1989.12"
"15.60000","1.29983","2010.71"
"15.80000","1.31697","2033.77"
"16.00000","1.33320","2054.94"
"16.20000","1.34973","2074.27"
"16.40000","1.36676","2096.15"
"16.60000","1.38349","2117.37"
"16.80000","1.39952","2138.54"
"17.00000","1.41686","2160.45"
"17.20000","1.43369","2182.3"
"17.40000","1.45022","2201.8"
"17.60000","1.46635","2222.4"
"17.80000","1.48348","2242.68"
"18.00000","1.50031","2262.99"
"18.20000","1.51634","2282.6"
"18.40000","1.53368","2302.92"
"18.60000","1.55011","2322.59"
"18.80000","1.56664","2341.9"
"19.00000","1.58306","2360.53"
"19.20000","1.60000","2380.31"
"19.40000","1.61663","2399.71"
"19.60000","1.63306","2419.35"
"19.80000","1.65029","2439.27"
"20.00000","1.66723","2459.99"
"20.20000","1.68305","2477.55"
"20.40000","1.70009","2496.02"
"20.60000","1.71702","2514.91"
"20.80000","1.73315","2533.27"
"21.00000","1.74988","2550.62"
"21.20000","1.76681","2568.79"
"21.40000","1.78344","2587.17"
"21.60000","1.79967","2603.71"
"21.80000","1.81681","2621.04"
"22.00000","1.83374","2639.3"
"22.20000","1.84987","2655.53"
"22.40000","1.86650","2672"
"22.60000","1.88343","2690.16"
"22.80000","1.90006","2706.63"
"23.00000","1.91639","2723.85"
"23.20000","1.93383","2741.54"
"23.40000","1.94995","2757.52"
"23.60000","1.96648","2773.34"
"23.80000","1.98332","2789.44"
"24.00000","2.00025","2806.64"
"24.20000","2.01658","2822.88"
"24.40000","2.03311","2839.11"
"24.60000","2.05014","2857.15"
"24.80000","2.06697","2874.24"
"25.00000","2.08300","2888.47"
"25.20000","2.10024","2906.15"
"25.40000","2.11697","2922.64"
"25.60000","2.13310","2938.53"
"25.80000","2.14983","2953.58"
"26.00000","2.16676","2970.73"
"26.20000","2.18349","2986.96"
"26.40000","2.19982","3001.25"
"26.60000","2.21655","3018.32"
"26.80000","2.23379","3035"
"27.00000","2.24992","3048.71"
"27.20000","2.26675","3064.72"
"27.40000","2.28338","3080.75"
"27.60000","2.30001","3097.03"
"27.80000","2.31634","3111.8"
"28.00000","2.33378","3129.11"
"28.20000","2.35000","3144.29"
"28.40000","2.36653","3158.51"
"28.60000","2.38337","3174.42"
"28.80000","2.40040","3189.76"
"29.00000","2.41643","3203.65"
"29.20000","2.43306","3219.16"
"29.40000","2.45039","3234.86"
"29.60000","2.46672","3249.55"
"29.80000","2.48285","3264.23"
"30.00000","2.50019","3280.45"
"30.20000","2.51692","3295.23"
"30.40000","2.53315","3309.91"
"30.60000","2.54998","3324.74"
"30.80000","2.56701","3339.8"
"31.00000","2.58344","3354.49"
"31.20000","2.59987","3368.17"
"31.40000","2.61670","3383.39"
"31.60000","2.63374","3397.68"
"31.80000","2.64976","3411.66"
"32.00000","2.66680","3427.11"
"32.20000","2.68353","3441.58"
"32.40000","2.69966","3454.37"
"32.60000","2.71659","3469.74"
"32.80000","2.73352","3483.29"
"33.00000","2.75026","3497.45"
"33.20000","2.76658","3511.46"
"33.40000","2.78372","3524.97"
"33.60000","2.80045","3538.9"
"33.80000","2.81658","3551.64"
"34.00000","2.83321","3566.51"
"34.20000","2.85034","3581.28"
"34.40000","2.86677","3592.7"
"34.60000","2.88300","3604.65"
"34.80000","2.90003","3617.96"
"35.00000","2.91646","3631.35"
"35.20000","2.93309","3644.42"
"35.40000","2.95033","3657.96"
"35.60000","2.96686","3671.04"
"35.80000","2.98319","3682.99"
"36.00000","3.00022","3696.65"
"36.20000","3.01695","3710.15"
"36.40000","3.03379","3722.19"
"36.60000","3.04971","3733.59"
"36.80000","3.06695","3746.93"
"37.00000","3.08348","3758.29"
"37.20000","3.09971","3769.94"
"37.40000","3.11664","3781.86"
"37.60000","3.13347","3794.42"
"37.80000","3.14990","3804.91"
"38.00000","3.16653","3816.87"
"38.20000","3.18337","3827.43"
"38.40000","3.20010","3837.86"
"38.60000","3.21643","3848.67"
"38.80000","3.23316","3859.65"
"39.00000","3.25029","3871.4"
"39.20000","3.26662","3880.56"
"39.40000","3.28325","3891.46"
"39.60000","3.30049","3901.47"
"39.80000","3.31661","3909.9"
"40.00000","3.33314","3918.2"
"40.20000","3.35008","3926.52"
"40.40000","3.36681","3934.76"
"40.60000","3.38314","3942.09"
"40.80000","3.39997","3950.15"
"41.00000","3.41680","3957.15"
"41.20000","3.43354","3962.15"
"41.40000","3.44976","3965.78"
"41.60000","3.46710","3970.94"
"41.80000","3.48353","3972.63"
"42.00000","3.49986","3974.57"
"42.20000","3.51699","3975.42"
"42.40000","3.53342","3974.9"
"42.60000","3.55005","3971.71"
"42.80000","3.56658","3966.56"
"43.00000","3.58352","3958.3"
"43.20000","3.60005","3945.68"
"43.40000","3.61648","3925.45"
"43.60000","3.63341","3889.75"
"43.80000","3.65044","3796.86"
"43.84000","3.65367","3222.23"
"43.84800","3.65447","2405.05"
"43.85000","3.65468","2192.01"