File: Data_Processing/Tensile-Data/Sequence_51.csv
General : Start date,"11/5/2024 8:35 AM"
General : End date,"11/5/2024 8:35 AM"
Specimen notes : Specimen note 1,"Day 3, purple, 230, batch 17, seq 51"
Test : Rate 1,"5.00000",mm/min

Time,Extension,Load
(s),(mm),(N)
"0.00000","-0.00010","0.34731"
"0.20000","0.01008","10.96329"
"0.40000","0.03175","55.44476"
"0.60000","0.04919","86.01320"
"0.80000","0.06673","117.299"
"1.00000","0.08336","144.484"
"1.20000","0.09999","172.387"
"1.40000","0.11692","200.076"
"1.60000","0.13355","228.013"
"1.80000","0.14998","255.26"
"2.00000","0.16671","282.821"
"2.20000","0.18355","311.837"
"2.40000","0.20008","337.838"
"2.60000","0.21640","365.156"
"2.80000","0.23354","393.92"
"3.00000","0.24997","420.96"
"3.20000","0.26640","447.72"
"3.40000","0.28353","475.509"
"3.60000","0.29986","501.487"
"3.80000","0.31669","529.462"
"4.00000","0.33332","554.4"
"4.20000","0.35036","581.171"
"4.40000","0.36699","606.987"
"4.60000","0.38342","631.444"
"4.80000","0.40015","656.726"
"5.00000","0.41698","682.366"
"5.20000","0.43321","705.849"
"5.40000","0.45004","730.395"
"5.60000","0.46688","753.198"
"5.80000","0.48341","776.585"
"6.00000","0.49973","798.826"
"6.20000","0.51687","823.224"
"6.40000","0.53320","845.294"
"6.60000","0.55003","868.312"
"6.80000","0.56666","891.531"
"7.00000","0.58370","914.822"
"7.20000","0.60002","935.64"
"7.40000","0.61645","957.032"
"7.60000","0.63359","979.984"
"7.80000","0.65002","1000.7"
"8.00000","0.66635","1020.86"
"8.20000","0.68348","1043.45"
"8.40000","0.70001","1064.13"
"8.60000","0.71614","1083.23"
"8.80000","0.73327","1103.75"
"9.00000","0.75021","1125.51"
"9.20000","0.76684","1145.83"
"9.40000","0.78317","1165.68"
"9.60000","0.80020","1185.94"
"9.80000","0.81713","1205.13"
"10.00000","0.83306","1223.96"
"10.20000","0.84999","1243.32"
"10.40000","0.86683","1261.7"
"10.60000","0.88325","1280.1"
"10.80000","0.89978","1298.54"
"11.00000","0.91682","1316.67"
"11.20000","0.93335","1334.33"
"11.40000","0.94968","1351.77"
"11.60000","0.96671","1371.48"
"11.80000","0.98344","1388.89"
"12.00000","0.99977","1406.65"
"12.20000","1.01620","1425.2"
"12.40000","1.03394","1444.56"
"12.60000","1.04997","1462.53"
"12.80000","1.06670","1480.24"
"13.00000","1.08373","1499.77"
"13.20000","1.10016","1517.32"
"13.40000","1.11639","1533.6"
"13.60000","1.13353","1552.67"
"13.80000","1.15046","1569.84"
"14.00000","1.16648","1587.54"
"14.20000","1.18312","1603.33"
"14.40000","1.20005","1620.33"
"14.60000","1.21678","1638.23"
"14.80000","1.23291","1654.23"
"15.00000","1.25034","1671.46"
"15.20000","1.26698","1687.96"
"15.40000","1.28320","1703.89"
"15.60000","1.30004","1720.79"
"15.80000","1.31687","1737.03"
"16.00000","1.33340","1754.04"
"16.20000","1.34973","1770.71"
"16.40000","1.36696","1788.23"
"16.60000","1.38349","1803.71"
"16.80000","1.39982","1819.94"
"17.00000","1.41665","1836.74"
"17.20000","1.43359","1854.18"
"17.40000","1.44982","1870.22"
"17.60000","1.46655","1886.51"
"17.80000","1.48368","1903.1"
"18.00000","1.50011","1919.58"
"18.20000","1.51664","1934.26"
"18.40000","1.53347","1950.27"
"18.60000","1.55031","1966.69"
"18.80000","1.56643","1982.73"
"19.00000","1.58296","1998.04"
"19.20000","1.60000","2016.12"
"19.40000","1.61663","2031.86"
"19.60000","1.63306","2049.25"
"19.80000","1.65029","2065.45"
"20.00000","1.66682","2082.04"
"20.20000","1.68305","2097.12"
"20.40000","1.70009","2114.3"
"20.60000","1.71662","2129.67"
"20.80000","1.73335","2145.68"
"21.00000","1.74988","2160.66"
"21.20000","1.76691","2178.21"
"21.40000","1.78314","2193.38"
"21.60000","1.79997","2209.53"
"21.80000","1.81691","2227.43"
"22.00000","1.83364","2244.39"
"22.20000","1.84976","2261.65"
"22.40000","1.86670","2278.75"
"22.60000","1.88353","2294.73"
"22.80000","1.89996","2310.65"
"23.00000","1.91649","2326.18"
"23.20000","1.93342","2344.09"
"23.40000","1.95026","2359.7"
"23.60000","1.96628","2374.7"
"23.80000","1.98352","2392.48"
"24.00000","2.00035","2408.36"
"24.20000","2.01658","2422.61"
"24.40000","2.03311","2440.03"
"24.60000","2.05024","2457.24"
"24.80000","2.06657","2473.35"
"25.00000","2.08290","2489.34"
"25.20000","2.10024","2506.93"
"25.40000","2.11667","2524.11"
"25.60000","2.13330","2541.87"
"25.80000","2.14993","2556.92"
"26.00000","2.16706","2572.35"
"26.20000","2.18349","2589.09"
"26.40000","2.19982","2605.89"
"26.60000","2.21716","2624.01"
"26.80000","2.23359","2640.99"
"27.00000","2.24992","2657.81"
"27.20000","2.26675","2675.43"
"27.40000","2.28348","2691.58"
"27.60000","2.29961","2708.79"
"27.80000","2.31674","2724.79"
"28.00000","2.33337","2742.66"
"28.20000","2.35021","2759.11"
"28.40000","2.36643","2775.28"
"28.60000","2.38357","2793.48"
"28.80000","2.40030","2808.79"
"29.00000","2.41643","2825.3"
"29.20000","2.43346","2842.43"
"29.40000","2.45049","2860.13"
"29.60000","2.46672","2877.32"
"29.80000","2.48305","2892.83"
"30.00000","2.49998","2909.58"
"30.20000","2.51641","2925.09"
"30.40000","2.53315","2942.1"
"30.60000","2.54978","2958.21"
"30.80000","2.56671","2975.47"
"31.00000","2.58334","2991.47"
"31.20000","2.59987","3007.08"
"31.40000","2.61711","3024.1"
"31.60000","2.63333","3040.07"
"31.80000","2.64997","3054.69"
"32.00000","2.66690","3072.52"
"32.20000","2.68363","3089.7"
"32.40000","2.69976","3105.15"
"32.60000","2.71659","3121"
"32.80000","2.73372","3138.23"
"33.00000","2.75026","3154.71"
"33.20000","2.76638","3169.84"
"33.40000","2.78342","3185.37"
"33.60000","2.80025","3200.71"
"33.80000","2.81627","3216.98"
"34.00000","2.83351","3233.6"
"34.20000","2.85004","3249.9"
"34.40000","2.86667","3265.38"
"34.60000","2.88320","3280.73"
"34.80000","2.90014","3296.21"
"35.00000","2.91697","3312.79"
"35.20000","2.93320","3327.02"
"35.40000","2.95013","3342.81"
"35.60000","2.96686","3358.27"
"35.80000","2.98309","3372.16"
"36.00000","2.99972","3385.97"
"36.20000","3.01695","3401.24"
"36.40000","3.03328","3414.24"
"36.60000","3.05002","3428.4"
"36.80000","3.06685","3441.89"
"37.00000","3.08348","3454.88"
"37.20000","3.09971","3467.49"
"37.40000","3.11684","3480.69"
"37.60000","3.13367","3491.88"
"37.80000","3.14990","3502.84"
"38.00000","3.16633","3513.18"
"38.20000","3.18367","3522.92"
"38.40000","3.20010","3529.03"
"38.60000","3.21622","3532.4"
"38.80000","3.23366","3527.45"
"38.91400","3.24314","3236.86"
"38.92200","3.24384","2537.7"
"38.92800","3.24455","1938.4"