File: Data_Processing/Tensile-Data/Sequence_18.csv
General : Start date,"10/22/2024 10:04 AM"
General : End date,"10/22/2024 10:05 AM"
Specimen notes : Specimen note 1,"purple, 200, batch 6, seq 18"
Test : Rate 1,"5.00000",mm/min

Time,Extension,Load
(s),(mm),(N)
"0.00000","0.00000","1.55190"
"0.20000","0.01330","19.68031"
"0.40000","0.03266","58.10201"
"0.60000","0.05030","89.65925"
"0.80000","0.06693","118.994"
"1.00000","0.08346","135.757"
"1.20000","0.10069","160.031"
"1.40000","0.11702","179.066"
"1.60000","0.13345","206.122"
"1.80000","0.15038","235.249"
"2.00000","0.16702","262.735"
"2.20000","0.18375","290.308"
"2.40000","0.19997","318.354"
"2.60000","0.21731","346.325"
"2.80000","0.23364","373.602"
"3.00000","0.25007","401.7"
"3.20000","0.26700","428.97"
"3.40000","0.28383","457.526"
"3.60000","0.29996","483.962"
"3.80000","0.31679","511.628"
"4.00000","0.33383","540.487"
"4.20000","0.35026","567.183"
"4.40000","0.36669","595.598"
"4.60000","0.38372","623.504"
"4.80000","0.40045","651.75"
"5.00000","0.41668","678.187"
"5.20000","0.43341","705.722"
"5.40000","0.45055","733.676"
"5.60000","0.46698","760.035"
"5.80000","0.48341","787.609"
"6.00000","0.50044","815.788"
"6.20000","0.51697","842.742"
"6.40000","0.53320","867.949"
"6.60000","0.55033","896.424"
"6.80000","0.56706","923.047"
"7.00000","0.58339","949.277"
"7.20000","0.60023","977.003"
"7.40000","0.61716","1003.17"
"7.60000","0.63349","1029.37"
"7.80000","0.65012","1055.5"
"8.00000","0.66725","1083.16"
"8.20000","0.68378","1110.08"
"8.40000","0.69981","1134.88"
"8.60000","0.71705","1161.36"
"8.80000","0.73348","1187.29"
"9.00000","0.75011","1213.33"
"9.20000","0.76654","1238.86"
"9.40000","0.78357","1264.96"
"9.60000","0.80020","1291.73"
"9.80000","0.81653","1317.64"
"10.00000","0.83387","1341.44"
"10.20000","0.85040","1367.86"
"10.40000","0.86683","1392.51"
"10.60000","0.88346","1417.56"
"10.80000","0.90069","1443.63"
"11.00000","0.91682","1469.28"
"11.20000","0.93345","1494.56"
"11.40000","0.95028","1519.78"
"11.60000","0.96722","1545.12"
"11.80000","0.98344","1570.45"
"12.00000","1.00018","1594.1"
"12.20000","1.01691","1618.41"
"12.40000","1.03324","1643.95"
"12.60000","1.05007","1666.51"
"12.80000","1.06710","1692.38"
"13.00000","1.08373","1717.79"
"13.20000","1.10016","1739.97"
"13.40000","1.11699","1765.68"
"13.60000","1.13383","1790.31"
"13.80000","1.15016","1814.86"
"14.00000","1.16689","1838.57"
"14.20000","1.18382","1863.26"
"14.40000","1.20045","1887.34"
"14.60000","1.21638","1909.94"
"14.80000","1.23371","1934.24"
"15.00000","1.25024","1957.65"
"15.20000","1.26708","1980.99"
"15.40000","1.28351","2003.73"
"15.60000","1.30034","2027.5"
"15.80000","1.31657","2048.84"
"16.00000","1.33310","2072.66"
"16.20000","1.35043","2096.48"
"16.40000","1.36706","2118.46"
"16.60000","1.38329","2138.44"
"16.80000","1.40043","2162.66"
"17.00000","1.41726","2184.98"
"17.20000","1.43339","2205.51"
"17.40000","1.45002","2228.56"
"17.60000","1.46735","2250.61"
"17.80000","1.48378","2271.85"
"18.00000","1.50001","2294.08"
"18.20000","1.51694","2316.14"
"18.40000","1.53388","2338.88"
"18.60000","1.55000","2360.29"
"18.80000","1.56704","2383.07"
"19.00000","1.58357","2403.83"
"19.20000","1.60020","2425"
"19.40000","1.61653","2445.52"
"19.60000","1.63386","2467.93"
"19.80000","1.65029","2489.25"
"20.00000","1.66672","2507.32"
"20.20000","1.68356","2529.87"
"20.40000","1.70049","2547.37"
"20.60000","1.71662","2566.71"
"20.80000","1.73335","2587.15"
"21.00000","1.75038","2608.8"
"21.20000","1.76701","2626.45"
"21.40000","1.78324","2646.84"
"21.60000","1.80058","2665.62"
"21.80000","1.81701","2685.06"
"22.00000","1.83334","2705.99"
"22.20000","1.85017","2725.82"
"22.40000","1.86700","2746.11"
"22.60000","1.88353","2766.01"
"22.80000","1.90006","2786.08"
"23.00000","1.91659","2802.6"
"23.20000","1.93393","2823.49"
"23.40000","1.94985","2842.23"
"23.60000","1.96719","2862.55"
"23.80000","1.98362","2881.74"
"24.00000","2.00035","2902.12"
"24.20000","2.01688","2920.21"
"24.40000","2.03391","2940.02"
"24.60000","2.05024","2957.95"
"24.80000","2.06677","2976.94"
"25.00000","2.08381","2995.31"
"25.20000","2.10034","3013.92"
"25.40000","2.11667","3029.67"
"25.60000","2.13340","3051.06"
"25.80000","2.15053","3069.71"
"26.00000","2.16686","3087.5"
"26.20000","2.18329","3105.47"
"26.40000","2.20073","3124.06"
"26.60000","2.21696","3143.16"
"26.80000","2.23328","3160.04"
"27.00000","2.25022","3177.24"
"27.20000","2.26705","3195.5"
"27.40000","2.28358","3210.71"
"27.60000","2.30021","3228.71"
"27.80000","2.31694","3244.86"
"28.00000","2.33398","3260.82"
"28.20000","2.34990","3278.36"
"28.40000","2.36704","3294.55"
"28.60000","2.38357","3310.26"
"28.80000","2.40010","3326.81"
"29.00000","2.41693","3342.29"
"29.20000","2.43356","3350.62"
"29.40000","2.45019","3366.41"
"29.60000","2.46703","3383.17"
"29.80000","2.48376","3398.4"
"30.00000","2.50039","3413.74"
"30.20000","2.51682","3427.48"
"30.40000","2.53345","3443.41"
"30.60000","2.55058","3452.66"
"30.80000","2.56661","3466.38"
"31.00000","2.58314","3481.77"
"31.20000","2.60058","3496.3"
"31.40000","2.61670","3509.9"
"31.60000","2.63313","3520.49"
"31.80000","2.65037","3535.77"
"32.00000","2.66730","3549.29"
"32.20000","2.68323","3561.54"
"32.40000","2.70016","3575.11"
"32.60000","2.71719","3589.57"
"32.80000","2.73383","3602.34"
"33.00000","2.74995","3542.24"
"33.20000","2.76719","3561.54"
"33.40000","2.78382","3579.15"
"33.60000","2.79985","3595.23"
"33.80000","2.81708","3610.42"
"34.00000","2.83351","3625.78"
"34.20000","2.84994","3642.46"
"34.40000","2.86677","3656.7"
"34.60000","2.88381","3671.81"
"34.80000","2.90024","3685.95"
"35.00000","2.91677","3698.52"
"35.20000","2.93390","3714.09"
"35.40000","2.95053","3727.9"
"35.60000","2.96666","3741.49"
"35.80000","2.98359","3754.45"
"36.00000","3.00083","3768.78"
"36.20000","3.01665","3781.17"
"36.40000","3.03328","3793.13"
"36.60000","3.05032","3805.48"
"36.80000","3.06695","3818.29"
"37.00000","3.08328","3828.46"
"37.20000","3.10031","3839.15"
"37.40000","3.11704","3849.03"
"37.60000","3.13357","3860.33"
"37.80000","3.15010","3869.59"
"38.00000","3.16684","3879.67"
"38.20000","3.18347","3889.62"
"38.40000","3.19990","3897.95"
"38.60000","3.21733","3907.83"
"38.80000","3.23356","3916.38"
"39.00000","3.25029","3924.87"
"39.20000","3.26682","3931.12"
"39.40000","3.28376","3938.99"
"39.60000","3.30008","3947.48"
"39.80000","3.31661","3953.52"
"40.00000","3.33365","3959.27"
"40.20000","3.35048","3962.29"
"40.40000","3.36661","3963.67"
"40.60000","3.38374","3966.88"
"40.80000","3.40068","3914.1"
"41.00000","3.41670","3907.18"
"41.20000","3.43333","3903.9"
"41.40000","3.45047","3902.97"
"41.60000","3.46700","3899.88"
"41.80000","3.48343","3895.88"
"42.00000","3.50006","3891.01"
"42.20000","3.51719","3882.65"
"42.40000","3.53332","3866.37"
"42.60000","3.55025","3832.08"
"42.80000","3.56709","3703.23"
"42.94800","3.57948","3304.31"
"42.95600","3.58029","2628.78"
"42.96200","3.58090","2028.37"