File: Data_Processing/Tensile-Data/Sequence_39.csv
General : Start date,"10/29/2024 10:42 AM"
General : End date,"10/29/2024 10:43 AM"
Specimen notes : Specimen note 1,"Day 2, purple, 230, batch 3, seq 39"
Test : Rate 1,"5.00000",mm/min

Time,Extension,Load
(s),(mm),(N)
"0.00000","-0.00010","0.25607"
"0.20000","0.00776","0.56399"
"0.40000","0.02338","6.16228"
"0.60000","0.04606","43.81612"
"0.80000","0.06542","79.24241"
"1.00000","0.08326","107.16"
"1.20000","0.09979","133.284"
"1.40000","0.11692","160.194"
"1.60000","0.13375","187.037"
"1.80000","0.14988","214.405"
"2.00000","0.16691","241.648"
"2.20000","0.18375","268.998"
"2.40000","0.19997","293.951"
"2.60000","0.21661","320.033"
"2.80000","0.23334","346.126"
"3.00000","0.25007","371.817"
"3.20000","0.26650","396.553"
"3.40000","0.28343","422.312"
"3.60000","0.29996","446.731"
"3.80000","0.31679","472.091"
"4.00000","0.33332","496.882"
"4.20000","0.35046","521.749"
"4.40000","0.36699","544.842"
"4.60000","0.38322","567.244"
"4.80000","0.40035","591.846"
"5.00000","0.41678","614.731"
"5.20000","0.43321","636.47"
"5.40000","0.45004","658.385"
"5.60000","0.46698","681.659"
"5.80000","0.48331","701.052"
"6.00000","0.49973","721.588"
"6.20000","0.51687","743.92"
"6.40000","0.53350","763.86"
"6.60000","0.54993","784.343"
"6.80000","0.56696","805.511"
"7.00000","0.58370","826.887"
"7.20000","0.59992","846.037"
"7.40000","0.61666","865.939"
"7.60000","0.63319","886.18"
"7.80000","0.65032","901.846"
"8.00000","0.66635","916.954"
"8.20000","0.68338","934.704"
"8.40000","0.70011","951.131"
"8.60000","0.71614","966.59"
"8.80000","0.73348","985.012"
"9.00000","0.75001","1002.91"
"9.20000","0.76694","1019.63"
"9.40000","0.78337","1036.4"
"9.60000","0.80040","1053.72"
"9.80000","0.81693","1070.19"
"10.00000","0.83326","1085.86"
"10.20000","0.85030","1103.67"
"10.40000","0.86703","1120"
"10.60000","0.88336","1136.67"
"10.80000","0.89968","1152.66"
"11.00000","0.91712","1170.82"
"11.20000","0.93325","1186.19"
"11.40000","0.94948","1202.77"
"11.60000","0.96681","1220.04"
"11.80000","0.98354","1236.56"
"12.00000","0.99977","1252.3"
"12.20000","1.01660","1270.1"
"12.40000","1.03364","1286.25"
"12.60000","1.05027","1302.84"
"12.80000","1.06640","1319.68"
"13.00000","1.08373","1335.71"
"13.20000","1.10036","1350.64"
"13.40000","1.11639","1367.6"
"13.60000","1.13363","1383.43"
"13.80000","1.15016","1399.16"
"14.00000","1.16638","1414.13"
"14.20000","1.18301","1429.47"
"14.40000","1.20005","1443.83"
"14.60000","1.21648","1458.94"
"14.80000","1.23331","1473.54"
"15.00000","1.25024","1489.09"
"15.20000","1.26698","1503.47"
"15.40000","1.28320","1518.24"
"15.60000","1.29983","1533.42"
"15.80000","1.31707","1549.02"
"16.00000","1.33310","1563.75"
"16.20000","1.34983","1579.45"
"16.40000","1.36696","1595.39"
"16.60000","1.38359","1610.07"
"16.80000","1.39972","1624.89"
"17.00000","1.41665","1640.61"
"17.20000","1.43339","1654.81"
"17.40000","1.45002","1670.03"
"17.60000","1.46645","1685.21"
"17.80000","1.48368","1700.68"
"18.00000","1.50011","1715.38"
"18.20000","1.51654","1730.81"
"18.40000","1.53388","1745.41"
"18.60000","1.55011","1760.71"
"18.80000","1.56684","1774.77"
"19.00000","1.58327","1789.9"
"19.20000","1.60020","1806.92"
"19.40000","1.61653","1820.16"
"19.60000","1.63316","1836.09"
"19.80000","1.65029","1853.14"
"20.00000","1.66703","1868.49"
"20.20000","1.68305","1883.03"
"20.40000","1.70019","1899.88"
"20.60000","1.71692","1913.32"
"20.80000","1.73325","1927.68"
"21.00000","1.74978","1943.13"
"21.20000","1.76701","1959.21"
"21.40000","1.78354","1973.44"
"21.60000","1.79987","1988.78"
"21.80000","1.81670","2004.47"
"22.00000","1.83374","2020.94"
"22.20000","1.84987","2035.64"
"22.40000","1.86660","2050.41"
"22.60000","1.88333","2066.29"
"22.80000","1.90016","2082.7"
"23.00000","1.91629","2097.37"
"23.20000","1.93363","2113.15"
"23.40000","1.95005","2127.62"
"23.60000","1.96669","2143.05"
"23.80000","1.98372","2159.65"
"24.00000","2.00035","2174.77"
"24.20000","2.01648","2188.72"
"24.40000","2.03301","2204.82"
"24.60000","2.05044","2221.18"
"24.80000","2.06687","2235.64"
"25.00000","2.08290","2250.96"
"25.20000","2.10004","2266.84"
"25.40000","2.11687","2282.19"
"25.60000","2.13310","2297.33"
"25.80000","2.15003","2313.17"
"26.00000","2.16696","2327.98"
"26.20000","2.18359","2343.93"
"26.40000","2.19992","2358.69"
"26.60000","2.21686","2374.51"
"26.80000","2.23379","2390.43"
"27.00000","2.24971","2405.87"
"27.20000","2.26685","2422.12"
"27.40000","2.28338","2436.99"
"27.60000","2.29981","2452.76"
"27.80000","2.31644","2468.64"
"28.00000","2.33378","2484.32"
"28.20000","2.35000","2500.59"
"28.40000","2.36674","2515.83"
"28.60000","2.38347","2530.92"
"28.80000","2.40030","2546.42"
"29.00000","2.41653","2561.94"
"29.20000","2.43326","2577.91"
"29.40000","2.45019","2593.23"
"29.60000","2.46662","2608.59"
"29.80000","2.48305","2623.7"
"30.00000","2.50039","2639.3"
"30.20000","2.51672","2655.69"
"30.40000","2.53315","2670.14"
"30.60000","2.55008","2686.03"
"30.80000","2.56671","2702.57"
"31.00000","2.58354","2717.35"
"31.20000","2.60007","2732.15"
"31.40000","2.61670","2748.75"
"31.60000","2.63374","2763.74"
"31.80000","2.64976","2778.98"
"32.00000","2.66710","2795.48"
"32.20000","2.68353","2809.8"
"32.40000","2.70016","2825.32"
"32.60000","2.71679","2842.05"
"32.80000","2.73362","2857.82"
"33.00000","2.75005","2873.61"
"33.20000","2.76638","2888.49"
"33.40000","2.78342","2905.12"
"33.60000","2.80015","2919.71"
"33.80000","2.81648","2934.32"
"34.00000","2.83341","2950.27"
"34.20000","2.85034","2966.08"
"34.40000","2.86657","2980.66"
"34.60000","2.88320","2996.2"
"34.80000","2.90054","3012.88"
"35.00000","2.91687","3027.57"
"35.20000","2.93320","3042.05"
"35.40000","2.95013","3057.82"
"35.60000","2.96706","3072.78"
"35.80000","2.98309","3088.01"
"36.00000","2.99982","3103.02"
"36.20000","3.01635","3117.04"
"36.40000","3.03328","3133.14"
"36.60000","3.04951","3147.64"
"36.80000","3.06715","3163.03"
"37.00000","3.08368","3177.71"
"37.20000","3.09971","3191.74"
"37.40000","3.11684","3207.51"
"37.60000","3.13347","3222.7"
"37.80000","3.15000","3237.82"
"38.00000","3.16673","3252.5"
"38.20000","3.18377","3268.15"
"38.40000","3.20000","3282.06"
"38.60000","3.21653","3296.49"
"38.80000","3.23326","3311.93"
"39.00000","3.25029","3325.21"
"39.20000","3.26642","3340.29"
"39.40000","3.28355","3354.93"
"39.60000","3.30029","3368.56"
"39.80000","3.31651","3382.99"
"40.00000","3.33314","3395.59"
"40.20000","3.35028","3410.19"
"40.40000","3.36691","3423.7"
"40.60000","3.38324","3436.5"
"40.80000","3.39997","3449.38"
"41.00000","3.41711","3463.37"
"41.20000","3.43333","3476.26"
"41.40000","3.44986","3488.88"
"41.60000","3.46690","3501.59"
"41.80000","3.48353","3513.36"
"42.00000","3.49976","3524.54"
"42.20000","3.51709","3535.77"
"42.40000","3.53332","3547.44"
"42.60000","3.55015","3557.21"
"42.80000","3.56668","3566.43"
"43.00000","3.58352","3574.31"
"43.20000","3.60005","3582.02"
"43.40000","3.61648","3585.52"
"43.60000","3.63371","3584.16"
"43.71600","3.64359","3197.63"
"43.72400","3.64429","2452.25"
"43.72800","3.64480","2044.32"