File: Data_Processing/Tensile-Data/Sequence_12.csv
General : Start date,"10/22/2024 9:43 AM"
General : End date,"10/22/2024 9:44 AM"
Specimen notes : Specimen note 1,"blue, 200, batch 8, seq 12"
Test : Rate 1,"5.00000",mm/min

Time,Extension,Load
(s),(mm),(N)
"0.00000","0.00000","0.39272"
"0.20000","0.01411","18.46550"
"0.40000","0.03306","56.22356"
"0.60000","0.04999","85.91679"
"0.80000","0.06683","113.809"
"1.00000","0.08366","142.48"
"1.20000","0.10009","171.569"
"1.40000","0.11682","191.151"
"1.60000","0.13395","219.661"
"1.80000","0.15028","248.555"
"2.00000","0.16661","277.163"
"2.20000","0.18375","305.209"
"2.40000","0.20028","334.677"
"2.60000","0.21661","360.935"
"2.80000","0.23364","389.2"
"3.00000","0.25037","418.011"
"3.20000","0.26660","445.22"
"3.40000","0.28343","473.85"
"3.60000","0.30047","501.12"
"3.80000","0.31690","528.575"
"4.00000","0.33322","555.788"
"4.20000","0.35036","584.85"
"4.40000","0.36729","612.049"
"4.60000","0.38332","639.702"
"4.80000","0.40015","667.085"
"5.00000","0.41668","693.174"
"5.20000","0.43351","720.837"
"5.40000","0.44984","747.218"
"5.60000","0.46688","774.611"
"5.80000","0.48361","800.717"
"6.00000","0.49994","827.087"
"6.20000","0.51697","855.133"
"6.40000","0.53350","880.898"
"6.60000","0.55013","907.029"
"6.80000","0.56666","932.711"
"7.00000","0.58380","960.981"
"7.20000","0.60023","986.393"
"7.40000","0.61676","1011.64"
"7.60000","0.63349","1038.76"
"7.80000","0.65052","1064.39"
"8.00000","0.66665","1089.9"
"8.20000","0.68318","1115.52"
"8.40000","0.70042","1141.49"
"8.60000","0.71644","1166.27"
"8.80000","0.73327","1191.69"
"9.00000","0.75021","1218.41"
"9.20000","0.76704","1244.11"
"9.40000","0.78337","1269.47"
"9.60000","0.80030","1294.54"
"9.80000","0.81703","1319.68"
"10.00000","0.83356","1344.06"
"10.20000","0.84999","1367.69"
"10.40000","0.86713","1395.06"
"10.60000","0.88366","1418.46"
"10.80000","0.89968","1442.52"
"11.00000","0.91702","1468.27"
"11.20000","0.93345","1491.79"
"11.40000","0.95008","1515.84"
"11.60000","0.96681","1541.37"
"11.80000","0.98375","1565.15"
"12.00000","0.99997","1587.87"
"12.20000","1.01640","1610.67"
"12.40000","1.03374","1635.55"
"12.60000","1.05057","1660.2"
"12.80000","1.06630","1682.63"
"13.00000","1.08343","1705.14"
"13.20000","1.10057","1727.58"
"13.40000","1.11659","1751.01"
"13.60000","1.13342","1772.55"
"13.80000","1.15036","1796.35"
"14.00000","1.16699","1819.08"
"14.20000","1.18332","1840.57"
"14.40000","1.20025","1864.22"
"14.60000","1.21708","1886.55"
"14.80000","1.23331","1908.76"
"15.00000","1.25004","1931.35"
"15.20000","1.26677","1954.2"
"15.40000","1.28351","1975.73"
"15.60000","1.29983","1997.4"
"15.80000","1.31717","2020.73"
"16.00000","1.33350","2040.31"
"16.20000","1.35023","2064.11"
"16.40000","1.36666","2082.94"
"16.60000","1.38370","2104.78"
"16.80000","1.40002","2125.52"
"17.00000","1.41655","2145.89"
"17.20000","1.43359","2169.17"
"17.40000","1.45042","2190.86"
"17.60000","1.46655","2210.21"
"17.80000","1.48368","2232.22"
"18.00000","1.50031","2254.56"
"18.20000","1.51664","2274.44"
"18.40000","1.53347","2296.14"
"18.60000","1.55031","2316.87"
"18.80000","1.56694","2338.63"
"19.00000","1.58337","2358.1"
"19.20000","1.60000","2379.35"
"19.40000","1.61713","2400.02"
"19.60000","1.63316","2420.32"
"19.80000","1.65040","2441.69"
"20.00000","1.66703","2462.76"
"20.20000","1.68366","2483.35"
"20.40000","1.69988","2502.29"
"20.60000","1.71722","2523.45"
"20.80000","1.73345","2542.86"
"21.00000","1.74988","2562.11"
"21.20000","1.76701","2582.55"
"21.40000","1.78364","2602.1"
"21.60000","1.79997","2620.38"
"21.80000","1.81640","2640.57"
"22.00000","1.83374","2661.23"
"22.20000","1.85027","2675.01"
"22.40000","1.86629","2693.89"
"22.60000","1.88373","2715.38"
"22.80000","1.90046","2734.18"
"23.00000","1.91649","2750.86"
"23.20000","1.93342","2769.9"
"23.40000","1.95036","2789.37"
"23.60000","1.96689","2807.68"
"23.80000","1.98342","2826.28"
"24.00000","2.00015","2844.72"
"24.20000","2.01718","2862.8"
"24.40000","2.03311","2874.61"
"24.60000","2.05024","2893.64"
"24.80000","2.06687","2907.96"
"25.00000","2.08361","2924.8"
"25.20000","2.09983","2941.59"
"25.40000","2.11707","2960.51"
"25.60000","2.13340","2976.4"
"25.80000","2.15023","2994.51"
"26.00000","2.16737","3011.99"
"26.20000","2.18349","3027.85"
"26.40000","2.20002","3045.35"
"26.60000","2.21675","3055.19"
"26.80000","2.23389","3073.03"
"27.00000","2.25022","3089.12"
"27.20000","2.26655","3103.57"
"27.40000","2.28358","3120.44"
"27.60000","2.30001","3137.35"
"27.80000","2.31654","3151.93"
"28.00000","2.33368","3168.38"
"28.20000","2.35041","3183.35"
"28.40000","2.36663","3197.9"
"28.60000","2.38337","3214.35"
"28.80000","2.40030","3228.46"
"29.00000","2.41713","3243.08"
"29.20000","2.43316","3255.57"
"29.40000","2.45049","3271.11"
"29.60000","2.46692","3283.47"
"29.80000","2.48325","3297.02"
"30.00000","2.50009","3309.38"
"30.20000","2.51692","3321.91"
"30.40000","2.53345","3334.45"
"30.60000","2.54998","3345.23"
"30.80000","2.56701","3360.2"
"31.00000","2.58364","3373.18"
"31.20000","2.59987","3384.31"
"31.40000","2.61701","3397.51"
"31.60000","2.63394","3407.83"
"31.80000","2.64997","3417.86"
"32.00000","2.66660","3419.57"
"32.20000","2.68383","3330.13"
"32.40000","2.70006","3350.41"
"32.60000","2.71659","3363.55"
"32.80000","2.73352","3376.16"
"33.00000","2.75036","3389.9"
"33.20000","2.76658","3402.18"
"33.40000","2.78352","3415.69"
"33.60000","2.80025","3428.7"
"33.80000","2.81698","3441.69"
"34.00000","2.83311","3453.62"
"34.20000","2.85024","3466.85"
"34.40000","2.86677","3479.02"
"34.60000","2.88330","3455.61"
"34.80000","2.90054","3472.35"
"35.00000","2.91707","3482.11"
"35.20000","2.93370","3494.11"
"35.40000","2.95003","3504.35"
"35.60000","2.96706","3517.91"
"35.80000","2.98349","3529.4"
"36.00000","2.99962","3540.62"
"36.20000","3.01685","3552.93"
"36.40000","3.03389","3563.58"
"36.60000","3.04981","3572.58"
"36.80000","3.06705","3583.38"
"37.00000","3.08388","3593.75"
"37.20000","3.09991","3602.06"
"37.40000","3.11654","3609.12"
"37.60000","3.13367","3617.33"
"37.80000","3.15041","3627.64"
"38.00000","3.16653","3637.37"
"38.20000","3.18357","3646.84"
"38.40000","3.20040","3656.54"
"38.60000","3.21653","3665.27"
"38.80000","3.23336","3672.17"
"39.00000","3.25039","3680.27"
"39.20000","3.26702","3688.74"
"39.40000","3.28315","3697.53"
"39.60000","3.30049","3706.65"
"39.80000","3.31672","3713.63"
"40.00000","3.33345","3721.52"
"40.20000","3.35018","3728.89"
"40.40000","3.36691","3736.49"
"40.60000","3.38334","3744.22"
"40.80000","3.39987","3751.08"
"41.00000","3.41711","3757.3"
"41.20000","3.43364","3763.83"
"41.40000","3.44956","3768.5"
"41.60000","3.46700","3773.81"
"41.80000","3.48373","3779.98"
"42.00000","3.49996","3782.84"
"42.20000","3.51689","3786.04"
"42.40000","3.53383","3789.64"
"42.60000","3.55046","3792.39"
"42.80000","3.56668","3793.28"
"43.00000","3.58331","3794.65"
"43.20000","3.60045","3795.21"
"43.40000","3.61668","3795.56"
"43.60000","3.63351","3793.51"
"43.80000","3.65024","3790.31"
"44.00000","3.66687","3784.5"
"44.20000","3.68310","3775.85"
"44.40000","3.70054","3764.51"
"44.60000","3.71687","3740.33"
"44.80000","3.73350","3679.61"
"44.99400","3.74993","3331.83"
"45.00200","3.75063","2691.87"
"45.00800","3.75134","2097.55"