File: Data_Processing/Tensile-Data/Sequence_20.csv
General : Start date,"10/22/2024 10:11 AM"
General : End date,"10/22/2024 10:11 AM"
Specimen notes : Specimen note 1,"black, 200, batch 8, seq 20"
Test : Rate 1,"5.00000",mm/min

Time,Extension,Load
(s),(mm),(N)
"0.00000","0.00000","0.07683"
"0.20000","0.00847","7.90345"
"0.40000","0.03225","54.40251"
"0.60000","0.04949","82.91184"
"0.80000","0.06662","111.268"
"1.00000","0.08356","126.905"
"1.20000","0.10029","147.151"
"1.40000","0.11682","162.362"
"1.60000","0.13345","186.106"
"1.80000","0.15038","211.425"
"2.00000","0.16681","236.107"
"2.20000","0.18365","263.27"
"2.40000","0.20048","290.16"
"2.60000","0.21671","316.522"
"2.80000","0.23334","343.109"
"3.00000","0.25027","369.732"
"3.20000","0.26670","397.378"
"3.40000","0.28343","424.655"
"3.60000","0.30037","451.128"
"3.80000","0.31720","479.108"
"4.00000","0.33332","504.95"
"4.20000","0.34996","531.177"
"4.40000","0.36689","558.332"
"4.60000","0.38382","584.681"
"4.80000","0.39985","610.363"
"5.00000","0.41708","637.907"
"5.20000","0.43372","664.051"
"5.40000","0.44994","689.932"
"5.60000","0.46678","714.387"
"5.80000","0.48341","741.775"
"6.00000","0.50004","767.969"
"6.20000","0.51657","793.984"
"6.40000","0.53370","820.309"
"6.60000","0.55043","845.999"
"6.80000","0.56656","870.043"
"7.00000","0.58329","895.545"
"7.20000","0.60043","921.675"
"7.40000","0.61645","945.355"
"7.60000","0.63329","971.064"
"7.80000","0.65052","996.483"
"8.00000","0.66675","1020.15"
"8.20000","0.68318","1044.02"
"8.40000","0.70011","1067.77"
"8.60000","0.71684","1093.21"
"8.80000","0.73317","1116.77"
"9.00000","0.74980","1140.69"
"9.20000","0.76704","1166.43"
"9.40000","0.78337","1189.12"
"9.60000","0.79980","1211.76"
"9.80000","0.81723","1237.49"
"10.00000","0.83346","1261.51"
"10.20000","0.84989","1284.14"
"10.40000","0.86693","1308.06"
"10.60000","0.88376","1332.53"
"10.80000","0.89978","1354.24"
"11.00000","0.91662","1376.81"
"11.20000","0.93375","1400.15"
"11.40000","0.95028","1423.16"
"11.60000","0.96641","1446.35"
"11.80000","0.98365","1469.81"
"12.00000","1.00048","1493.78"
"12.20000","1.01650","1515.78"
"12.40000","1.03334","1538.32"
"12.60000","1.05017","1561.17"
"12.80000","1.06650","1582.8"
"13.00000","1.08323","1605.19"
"13.20000","1.10016","1628.05"
"13.40000","1.11699","1650.12"
"13.60000","1.13332","1671.98"
"13.80000","1.15016","1692.53"
"14.00000","1.16679","1713.35"
"14.20000","1.18322","1735.03"
"14.40000","1.19995","1755.91"
"14.60000","1.21708","1767.74"
"14.80000","1.23361","1791.5"
"15.00000","1.24974","1813.09"
"15.20000","1.26718","1835.81"
"15.40000","1.28351","1855.05"
"15.60000","1.29983","1874.78"
"15.80000","1.31667","1897.18"
"16.00000","1.33370","1869.77"
"16.20000","1.35013","1893.74"
"16.40000","1.36656","1916.92"
"16.60000","1.38359","1940.87"
"16.80000","1.40023","1965.09"
"17.00000","1.41655","1986.05"
"17.20000","1.43359","2009.46"
"17.40000","1.45052","2033.49"
"17.60000","1.46665","2054.29"
"17.80000","1.48348","2075.88"
"18.00000","1.50001","2097.67"
"18.20000","1.51694","2118.95"
"18.40000","1.53307","2138.14"
"18.60000","1.55021","2159.95"
"18.80000","1.56674","2180.2"
"19.00000","1.58347","2201.22"
"19.20000","1.60010","2221.14"
"19.40000","1.61703","2239.86"
"19.60000","1.63346","2261.59"
"19.80000","1.64989","2282.41"
"20.00000","1.66713","2252.7"
"20.20000","1.68366","2277.4"
"20.40000","1.69988","2298.41"
"20.60000","1.71682","2323.02"
"20.80000","1.73395","2346.75"
"21.00000","1.74998","2367.39"
"21.20000","1.76651","2389.22"
"21.40000","1.78364","2410.74"
"21.60000","1.79997","2431.7"
"21.80000","1.81650","2453.81"
"22.00000","1.83344","2475.71"
"22.20000","1.85047","2497.46"
"22.40000","1.86660","2517.11"
"22.60000","1.88343","2538.29"
"22.80000","1.90036","2559.84"
"23.00000","1.91689","2578.63"
"23.20000","1.93322","2597.77"
"23.40000","1.95056","2618.56"
"23.60000","1.96689","2628.53"
"23.80000","1.98311","2648.92"
"24.00000","2.00025","2671.66"
"24.20000","2.01678","2694.29"
"24.40000","2.03351","2715.29"
"24.60000","2.04994","2679.49"
"24.80000","2.06697","2706.08"
"25.00000","2.08330","2728.64"
"25.20000","2.09963","2748.87"
"25.40000","2.11697","2771.88"
"25.60000","2.13370","2793.79"
"25.80000","2.14983","2814.89"
"26.00000","2.16676","2835.22"
"26.20000","2.18379","2856.18"
"26.40000","2.19992","2876.1"
"26.60000","2.21665","2896.96"
"26.80000","2.23349","2917.5"
"27.00000","2.25032","2936.62"
"27.20000","2.26645","2955.61"
"27.40000","2.28348","2975.34"
"27.60000","2.30001","2993.33"
"27.80000","2.31684","3012.39"
"28.00000","2.33317","3030.58"
"28.20000","2.35021","3050.21"
"28.40000","2.36694","3069.03"
"28.60000","2.38327","3083.49"
"28.80000","2.40040","3104.45"
"29.00000","2.41673","3124.74"
"29.20000","2.43346","3142.42"
"29.40000","2.44999","3095.67"
"29.60000","2.46682","3118.54"
"29.80000","2.48345","3138.42"
"30.00000","2.49988","3159.39"
"30.20000","2.51692","3181.03"
"30.40000","2.53365","3200.49"
"30.60000","2.54978","3219.21"
"30.80000","2.56691","3239.07"
"31.00000","2.58374","3259.05"
"31.20000","2.59987","3277.74"
"31.40000","2.61670","3296.09"
"31.60000","2.63364","3314.94"
"31.80000","2.65027","3334.69"
"32.00000","2.66650","3351.81"
"32.20000","2.68323","3370.51"
"32.40000","2.70046","3389.22"
"32.60000","2.71649","3405.97"
"32.80000","2.73342","3424.06"
"33.00000","2.75036","3440.95"
"33.20000","2.76699","3458.74"
"33.40000","2.78311","3474.07"
"33.60000","2.80055","3491.97"
"33.80000","2.81688","3508.25"
"34.00000","2.83341","3523.84"
"34.20000","2.85024","3540.14"
"34.40000","2.86687","3556.6"
"34.60000","2.88330","3570.78"
"34.80000","2.89973","3587.01"
"35.00000","2.91697","3603.01"
"35.20000","2.93360","3617.92"
"35.40000","2.94973","3632.73"
"35.60000","2.96706","3649.75"
"35.80000","2.98379","3664.65"
"36.00000","2.99982","3605.98"
"36.20000","3.01675","3625.65"
"36.40000","3.03359","3644.01"
"36.60000","3.05032","3662.09"
"36.80000","3.06675","3677.92"
"37.00000","3.08348","3696.07"
"37.20000","3.10041","3711.4"
"37.40000","3.11654","3727.01"
"37.60000","3.13347","3709.42"
"37.80000","3.15020","3729.58"
"38.00000","3.16663","3746.26"
"38.20000","3.18316","3762.44"
"38.40000","3.20060","3779.75"
"38.60000","3.21663","3779.13"
"38.80000","3.23346","3794.35"
"39.00000","3.25039","3808.52"
"39.20000","3.26682","3823.13"
"39.40000","3.28335","3836.7"
"39.60000","3.29998","3850.16"
"39.80000","3.31702","3862.71"
"40.00000","3.33355","3876"
"40.20000","3.34978","3888.53"
"40.40000","3.36691","3902.7"
"40.60000","3.38344","3914.14"
"40.80000","3.39987","3924.34"
"41.00000","3.41690","3936.92"
"41.20000","3.43364","3947.16"
"41.40000","3.44996","3956"
"41.60000","3.46670","3964.54"
"41.80000","3.48353","3971.97"
"42.00000","3.50056","3978.04"
"42.20000","3.51639","3982.12"
"42.40000","3.53372","3986.05"
"42.60000","3.55035","3987.17"
"42.80000","3.56658","3982.16"
"43.00000","3.58331","3973.07"
"43.20000","3.60035","3952.31"
"43.39000","3.61577","3595.98"
"43.39800","3.61658","2850.17"
"43.40400","3.61728","2190.3"