File: Data_Processing/Tensile-Data/Sequence_5.csv
General : Start date,"10/22/2024 9:21 AM"
General : End date,"10/22/2024 9:21 AM"
Specimen notes : Specimen note 1,"red, 200, batch 2, seq 5"
Test : Rate 1,"5.00000",mm/min

Time,Extension,Load
(s),(mm),(N)
"0.00000","0.00000","-0.29059"
"0.20000","0.01472","21.19757"
"0.40000","0.03336","57.56330"
"0.60000","0.05020","87.45164"
"0.80000","0.06652","116.118"
"1.00000","0.08366","147.721"
"1.20000","0.10039","176.421"
"1.40000","0.11682","205.598"
"1.60000","0.13395","234.962"
"1.80000","0.15038","264.963"
"2.00000","0.16691","293.398"
"2.20000","0.18334","321.838"
"2.40000","0.20058","351.727"
"2.60000","0.21701","379.358"
"2.80000","0.23354","407.532"
"3.00000","0.25017","435.304"
"3.20000","0.26730","465.12"
"3.40000","0.28353","491.981"
"3.60000","0.30006","519.916"
"3.80000","0.31710","548.519"
"4.00000","0.33322","575.547"
"4.20000","0.35006","603.324"
"4.40000","0.36709","631.899"
"4.60000","0.38372","659.855"
"4.80000","0.40025","688.103"
"5.00000","0.41708","715.766"
"5.20000","0.43382","743.219"
"5.40000","0.45004","769.585"
"5.60000","0.46678","796.23"
"5.80000","0.48371","825.396"
"6.00000","0.50054","852.06"
"6.20000","0.51647","878.829"
"6.40000","0.53370","906.714"
"6.60000","0.55053","933.167"
"6.80000","0.56686","959.695"
"7.00000","0.58360","985.466"
"7.20000","0.60023","1012.51"
"7.40000","0.61655","1037.86"
"7.60000","0.63329","1064.41"
"7.80000","0.65042","1090.94"
"8.00000","0.66715","1117.21"
"8.20000","0.68328","1140.28"
"8.40000","0.70021","1166.34"
"8.60000","0.71725","1191.68"
"8.80000","0.73317","1216.71"
"9.00000","0.75001","1241.55"
"9.20000","0.76724","1266.29"
"9.40000","0.78357","1291.86"
"9.60000","0.79990","1315.72"
"9.80000","0.81703","1341.61"
"10.00000","0.83376","1364.04"
"10.20000","0.85009","1388.11"
"10.40000","0.86672","1411.91"
"10.60000","0.88366","1436.51"
"10.80000","0.90029","1461.35"
"11.00000","0.91642","1483.57"
"11.20000","0.93395","1508.14"
"11.40000","0.95038","1531.46"
"11.60000","0.96691","1554.72"
"11.80000","0.98354","1577.09"
"12.00000","1.00038","1600.46"
"12.20000","1.01671","1622.72"
"12.40000","1.03334","1645.63"
"12.60000","1.05037","1668.98"
"12.80000","1.06690","1690.72"
"13.00000","1.08333","1711.33"
"13.20000","1.10046","1735.17"
"13.40000","1.11710","1757.61"
"13.60000","1.13322","1778.93"
"13.80000","1.15016","1800.78"
"14.00000","1.16699","1823.76"
"14.20000","1.18352","1844.19"
"14.40000","1.20015","1865.53"
"14.60000","1.21668","1887.54"
"14.80000","1.23392","1910.44"
"15.00000","1.24994","1929.96"
"15.20000","1.26718","1952.24"
"15.40000","1.28371","1974.18"
"15.60000","1.30034","1995.89"
"15.80000","1.31667","2014.74"
"16.00000","1.33390","2037.1"
"16.20000","1.35033","2057.9"
"16.40000","1.36656","2077.76"
"16.60000","1.38359","2099.7"
"16.80000","1.40033","2118.41"
"17.00000","1.41665","2137.45"
"17.20000","1.43318","2156.73"
"17.40000","1.45052","2176.21"
"17.60000","1.46695","2192.59"
"17.80000","1.48308","2207.91"
"18.00000","1.50041","2227.13"
"18.20000","1.51705","2244.35"
"18.40000","1.53347","2263.26"
"18.60000","1.55011","2282.95"
"18.80000","1.56704","2301.9"
"19.00000","1.58387","2321.46"
"19.20000","1.60020","2340.22"
"19.40000","1.61703","2358.12"
"19.60000","1.63386","2377.03"
"19.80000","1.64979","2393.26"
"20.00000","1.66693","2413.72"
"20.20000","1.68366","2432.28"
"20.40000","1.70009","2451.04"
"20.60000","1.71672","2470.06"
"20.80000","1.73375","2488.27"
"21.00000","1.75018","2507.05"
"21.20000","1.76691","2525.49"
"21.40000","1.78395","2544.25"
"21.60000","1.80048","2562.19"
"21.80000","1.81670","2579.49"
"22.00000","1.83344","2598.07"
"22.20000","1.85057","2617.5"
"22.40000","1.86690","2636.13"
"22.60000","1.88323","2653.77"
"22.80000","1.90046","2671.85"
"23.00000","1.91669","2690.38"
"23.20000","1.93332","2708.42"
"23.40000","1.95036","2726.67"
"23.60000","1.96719","2745.28"
"23.80000","1.98322","2762.37"
"24.00000","2.00015","2781.8"
"24.20000","2.01708","2800.33"
"24.40000","2.03381","2817.87"
"24.60000","2.04994","2834.15"
"24.80000","2.06718","2852.94"
"25.00000","2.08371","2870.95"
"25.20000","2.09993","2886.77"
"25.40000","2.11687","2904.47"
"25.60000","2.13360","2922.77"
"25.80000","2.15003","2940.31"
"26.00000","2.16676","2957.65"
"26.20000","2.18369","2975.15"
"26.40000","2.20033","2993.04"
"26.60000","2.21655","3008.79"
"26.80000","2.23389","3026.89"
"27.00000","2.25062","3044.92"
"27.20000","2.26685","3061.86"
"27.40000","2.28348","3077.8"
"27.60000","2.30051","3095.89"
"27.80000","2.31674","3111.72"
"28.00000","2.33337","3129.63"
"28.20000","2.35031","3146.58"
"28.40000","2.36694","3163.91"
"28.60000","2.38327","3179.51"
"28.80000","2.40020","3196.52"
"29.00000","2.41693","3212.84"
"29.20000","2.43356","3230.55"
"29.40000","2.44989","3245.75"
"29.60000","2.46703","3263.22"
"29.80000","2.48366","3280.24"
"30.00000","2.49988","3296.3"
"30.20000","2.51702","3213.44"
"30.40000","2.53365","3227.69"
"30.60000","2.55058","3249.81"
"30.80000","2.56691","3270.04"
"31.00000","2.58374","3290.54"
"31.20000","2.60017","3309.86"
"31.40000","2.61650","3329.27"
"31.60000","2.63364","3349.71"
"31.80000","2.65057","3358.08"
"32.00000","2.66680","3341.19"
"32.20000","2.68383","3363.61"
"32.40000","2.70066","3385.19"
"32.60000","2.71659","3405.21"
"32.80000","2.73322","3425.41"
"33.00000","2.75036","3446.76"
"33.20000","2.76709","3467"
"33.40000","2.78332","3486.37"
"33.60000","2.80005","3506.69"
"33.80000","2.81718","3525.96"
"34.00000","2.83321","3544.49"
"34.20000","2.84994","3563.18"
"34.40000","2.86718","3582.08"
"34.60000","2.88371","3600.73"
"34.80000","2.89983","3618.59"
"35.00000","2.91717","3636.92"
"35.20000","2.93350","3654.26"
"35.40000","2.95023","3671.32"
"35.60000","2.96686","3688.48"
"35.80000","2.98379","3705.07"
"36.00000","2.99992","3720.43"
"36.20000","3.01655","3736.14"
"36.40000","3.03379","3753.44"
"36.60000","3.05032","3769.26"
"36.80000","3.06634","3783.82"
"37.00000","3.08368","3801.25"
"37.20000","3.10041","3815.8"
"37.40000","3.11674","3830.12"
"37.60000","3.13367","3844.7"
"37.80000","3.15061","3860.28"
"38.00000","3.16704","3873.95"
"38.20000","3.18326","3888.23"
"38.40000","3.20030","3903.37"
"38.60000","3.21723","3918.11"
"38.80000","3.23326","3931.4"
"39.00000","3.25039","3945.6"
"39.20000","3.26692","3959.7"
"39.40000","3.28355","3973.66"
"39.60000","3.29978","3985.43"
"39.80000","3.31712","3999.57"
"40.00000","3.33345","4010.21"
"40.20000","3.35028","3952.73"
"40.40000","3.36701","3963.75"
"40.60000","3.38405","3981.39"
"40.80000","3.40017","3996.49"
"41.00000","3.41660","4012.5"
"41.20000","3.43394","4028.29"
"41.40000","3.45047","4042.13"
"41.60000","3.46680","4055.01"
"41.80000","3.48363","4068.62"
"42.00000","3.50016","4083.14"
"42.20000","3.51669","4094.52"
"42.40000","3.53362","4109"
"42.60000","3.55035","4121.41"
"42.80000","3.56709","4133.83"
"43.00000","3.58342","4144.7"
"43.20000","3.60015","4156.29"
"43.40000","3.61738","4167.01"
"43.60000","3.63321","4174.24"
"43.80000","3.65044","4184.49"
"44.00000","3.66717","4192.59"
"44.20000","3.68340","4198.49"
"44.40000","3.70003","4202.36"
"44.60000","3.71707","4203.71"
"44.80000","3.73350","4200.46"
"45.00000","3.74983","4190.4"
"45.20000","3.76686","4164.52"
"45.39800","3.78389","3876.83"
"45.40600","3.78450","3166.16"
"45.41400","3.78541","2255.71"