File: Data_Processing/Tensile-Data/Sequence_28.csv
General : Start date,"10/29/2024 10:15 AM"
General : End date,"10/29/2024 10:15 AM"
Specimen notes : Specimen note 1,"Day 2, black, 215, batch 10, seq 28"
Test : Rate 1,"5.00000",mm/min

Time,Extension,Load
(s),(mm),(N)
"0.00000","0.00000","-0.53598"
"0.20000","0.00947","9.36620"
"0.40000","0.03256","54.78948"
"0.60000","0.04929","86.16260"
"0.80000","0.06632","115.466"
"1.00000","0.08376","143.656"
"1.20000","0.10029","171.43"
"1.40000","0.11642","198.649"
"1.60000","0.13355","227.111"
"1.80000","0.15028","254.504"
"2.00000","0.16681","283.862"
"2.20000","0.18355","312.137"
"2.40000","0.20058","342.365"
"2.60000","0.21701","370.188"
"2.80000","0.23334","396.313"
"3.00000","0.25017","424.439"
"3.20000","0.26700","452.573"
"3.40000","0.28323","478.165"
"3.60000","0.30016","505.769"
"3.80000","0.31690","534.456"
"4.00000","0.33322","560.365"
"4.20000","0.34985","587.006"
"4.40000","0.36699","615.229"
"4.60000","0.38332","641.472"
"4.80000","0.40025","669.211"
"5.00000","0.41708","694.765"
"5.20000","0.43392","722.838"
"5.40000","0.45014","747.115"
"5.60000","0.46667","773.182"
"5.80000","0.48381","801.294"
"6.00000","0.50024","826.725"
"6.20000","0.51657","852.391"
"6.40000","0.53350","879.649"
"6.60000","0.55033","904.792"
"6.80000","0.56636","929.733"
"7.00000","0.58339","954.249"
"7.20000","0.60013","980.844"
"7.40000","0.61676","1006.12"
"7.60000","0.63329","1030.9"
"7.80000","0.65022","1057.87"
"8.00000","0.66715","1082.74"
"8.20000","0.68328","1106.98"
"8.40000","0.70031","1131.86"
"8.60000","0.71705","1155.13"
"8.80000","0.73337","1180.12"
"9.00000","0.75001","1204.66"
"9.20000","0.76704","1229.25"
"9.40000","0.78337","1254.08"
"9.60000","0.79950","1276.83"
"9.80000","0.81693","1302.61"
"10.00000","0.83346","1325.39"
"10.20000","0.84989","1348.81"
"10.40000","0.86672","1373.27"
"10.60000","0.88396","1397.02"
"10.80000","0.90029","1418.95"
"11.00000","0.91642","1441.56"
"11.20000","0.93375","1466.21"
"11.40000","0.95028","1488.46"
"11.60000","0.96651","1510.3"
"11.80000","0.98354","1533.22"
"12.00000","1.00038","1555.5"
"12.20000","1.01640","1577.34"
"12.40000","1.03354","1600.72"
"12.60000","1.05027","1623.1"
"12.80000","1.06710","1644.69"
"13.00000","1.08313","1664.46"
"13.20000","1.10026","1685.25"
"13.40000","1.11689","1706.25"
"13.60000","1.13332","1727.09"
"13.80000","1.15016","1746.17"
"14.00000","1.16709","1766.3"
"14.20000","1.18352","1786.39"
"14.40000","1.19995","1807.14"
"14.60000","1.21698","1827.98"
"14.80000","1.23341","1848.48"
"15.00000","1.24994","1868.99"
"15.20000","1.26677","1889.34"
"15.40000","1.28371","1909"
"15.60000","1.29983","1928.38"
"15.80000","1.31667","1948.36"
"16.00000","1.33380","1968.72"
"16.20000","1.35023","1987.68"
"16.40000","1.36666","2006.43"
"16.60000","1.38349","2027.07"
"16.80000","1.40053","2047.16"
"17.00000","1.41676","2065.69"
"17.20000","1.43339","2085.74"
"17.40000","1.45032","2105.29"
"17.60000","1.46675","2124.88"
"17.80000","1.48308","2143.91"
"18.00000","1.50021","2164.06"
"18.20000","1.51705","2183.93"
"18.40000","1.53317","2201.95"
"18.60000","1.55041","2221.74"
"18.80000","1.56684","2240.53"
"19.00000","1.58347","2259.16"
"19.20000","1.60010","2277.54"
"19.40000","1.61703","2298.26"
"19.60000","1.63346","2315.94"
"19.80000","1.64979","2332.93"
"20.00000","1.66682","2352.19"
"20.20000","1.68376","2370.15"
"20.40000","1.69978","2387.65"
"20.60000","1.71652","2406.52"
"20.80000","1.73375","2424.27"
"21.00000","1.74998","2442.19"
"21.20000","1.76661","2460.62"
"21.40000","1.78374","2478.41"
"21.60000","1.80058","2496.46"
"21.80000","1.81650","2512.73"
"22.00000","1.83354","2530.79"
"22.20000","1.85047","2547.53"
"22.40000","1.86670","2564.83"
"22.60000","1.88313","2582.22"
"22.80000","1.90016","2599.04"
"23.00000","1.91699","2616.2"
"23.20000","1.93292","2632.72"
"23.40000","1.95056","2650.71"
"23.60000","1.96679","2667.92"
"23.80000","1.98342","2685.35"
"24.00000","2.00005","2701.25"
"24.20000","2.01698","2717.49"
"24.40000","2.03341","2734.63"
"24.60000","2.05004","2751.65"
"24.80000","2.06697","2768.07"
"25.00000","2.08361","2785.77"
"25.20000","2.09973","2800.89"
"25.40000","2.11697","2818.01"
"25.60000","2.13360","2834.31"
"25.80000","2.14993","2850.44"
"26.00000","2.16666","2867.36"
"26.20000","2.18339","2884.27"
"26.40000","2.20012","2900.82"
"26.60000","2.21655","2917.96"
"26.80000","2.23349","2934.13"
"27.00000","2.25062","2950.66"
"27.20000","2.26665","2965.41"
"27.40000","2.28358","2981.68"
"27.60000","2.30041","2997.3"
"27.80000","2.31684","3014.77"
"28.00000","2.33337","3030.82"
"28.20000","2.35051","3047.95"
"28.40000","2.36663","3063.72"
"28.60000","2.38316","3080.3"
"28.80000","2.40010","3095.43"
"29.00000","2.41673","3111.36"
"29.20000","2.43326","3127.16"
"29.40000","2.45009","3143.55"
"29.60000","2.46713","3159.9"
"29.80000","2.48345","3174.78"
"30.00000","2.49968","3190.48"
"30.20000","2.51712","3208.1"
"30.40000","2.53365","3222.72"
"30.60000","2.54998","3238.62"
"30.80000","2.56681","3254.06"
"31.00000","2.58354","3269.96"
"31.20000","2.60017","3285.06"
"31.40000","2.61660","3299.81"
"31.60000","2.63313","3316.16"
"31.80000","2.65027","3332.11"
"32.00000","2.66639","3347.13"
"32.20000","2.68363","3362.77"
"32.40000","2.70036","3377.88"
"32.60000","2.71689","3392.44"
"32.80000","2.73332","3407.28"
"33.00000","2.75036","3422.75"
"33.20000","2.76689","3438.22"
"33.40000","2.78342","3452.95"
"33.60000","2.80025","3469.3"
"33.80000","2.81708","3484.06"
"34.00000","2.83321","3498.7"
"34.20000","2.84984","3513.56"
"34.40000","2.86718","3528.96"
"34.60000","2.88350","3543.36"
"34.80000","2.89973","3558.04"
"35.00000","2.91717","3573.37"
"35.20000","2.93350","3587.67"
"35.40000","2.95003","3601.1"
"35.60000","2.96696","3615.82"
"35.80000","2.98359","3629.75"
"36.00000","3.00002","3643.91"
"36.20000","3.01665","3658.09"
"36.40000","3.03359","3673.72"
"36.60000","3.05052","3688.44"
"36.80000","3.06634","3701.39"
"37.00000","3.08368","3716.2"
"37.20000","3.10031","3729.53"
"37.40000","3.11644","3743.29"
"37.60000","3.13367","3757.44"
"37.80000","3.15041","3770.94"
"38.00000","3.16684","3784.32"
"38.20000","3.18337","3797.23"
"38.40000","3.20030","3810.83"
"38.60000","3.21693","3824.79"
"38.80000","3.23316","3837.99"
"39.00000","3.25039","3851.48"
"39.20000","3.26723","3864.82"
"39.40000","3.28335","3827.41"
"39.60000","3.29998","3832.59"
"39.80000","3.31732","3850.98"
"40.00000","3.33345","3867.66"
"40.20000","3.35008","3881.93"
"40.40000","3.36701","3893.75"
"40.60000","3.38364","3910.02"
"40.80000","3.39987","3924.11"
"41.00000","3.41660","3939.02"
"41.20000","3.43384","3952.8"
"41.40000","3.45027","3964.44"
"41.60000","3.46649","3977.71"
"41.80000","3.48353","3991.17"
"42.00000","3.50006","4003.93"
"42.20000","3.51649","4015.42"
"42.40000","3.53372","4027.77"
"42.60000","3.55015","4040.18"
"42.80000","3.56678","4050.89"
"43.00000","3.58342","4061.65"
"43.20000","3.60035","4073.79"
"43.40000","3.61688","4083.43"
"43.60000","3.63341","4093.46"
"43.80000","3.65024","4104.39"
"44.00000","3.66717","4114.04"
"44.20000","3.68330","4122.66"
"44.40000","3.70003","4130.38"
"44.60000","3.71717","4138.52"
"44.80000","3.73319","4144.32"
"45.00000","3.74983","4150.97"
"45.20000","3.76696","4156.83"
"45.40000","3.78369","4162.03"
"45.60000","3.79992","4165.18"
"45.80000","3.81655","4167.89"
"46.00000","3.83379","4169.52"
"46.20000","3.85012","4168.46"
"46.40000","3.86644","4166.38"
"46.60000","3.88368","4164.3"
"46.80000","3.90031","4158.37"
"47.00000","3.91654","4150.62"
"47.20000","3.93357","4140.06"
"47.40000","3.95000","4125.96"
"47.60000","3.96653","4108.76"
"47.80000","3.98336","4085.29"
"48.00000","4.00020","4053.97"
"48.20000","4.01693","4001.96"
"48.39400","4.03285","3610.87"
"48.40200","4.03366","2858.08"
"48.40800","4.03437","2196.41"