File: Data_Processing/Tensile-Data/Sequence_53.csv
General : Start date,"11/5/2024 8:40 AM"
General : End date,"11/5/2024 8:41 AM"
Specimen notes : Specimen note 1,"Day 3, red, 230, batch 16, seq 53"
Test : Rate 1,"5.00000",mm/min

Time,Extension,Load
(s),(mm),(N)
"0.00000","0.00000","-0.23173"
"0.20000","0.00978","0.46561"
"0.40000","0.02691","24.56135"
"0.60000","0.04778","68.55077"
"0.80000","0.06642","103.879"
"1.00000","0.08336","133.537"
"1.20000","0.09979","162.39"
"1.40000","0.11702","192.746"
"1.60000","0.13375","221.076"
"1.80000","0.15028","249.779"
"2.00000","0.16691","276.674"
"2.20000","0.18375","305.388"
"2.40000","0.20038","332.831"
"2.60000","0.21671","360.552"
"2.80000","0.23364","390.409"
"3.00000","0.25037","418.986"
"3.20000","0.26670","445.4"
"3.40000","0.28363","473.886"
"3.60000","0.30047","500.839"
"3.80000","0.31649","528.752"
"4.00000","0.33353","556.111"
"4.20000","0.35026","583.479"
"4.40000","0.36689","610.587"
"4.60000","0.38332","636.658"
"4.80000","0.40055","664.273"
"5.00000","0.41718","690.373"
"5.20000","0.43341","714.373"
"5.40000","0.45045","739.296"
"5.60000","0.46708","765.498"
"5.80000","0.48351","790.977"
"6.00000","0.49994","813.944"
"6.20000","0.51717","839.7"
"6.40000","0.53360","862.857"
"6.60000","0.54973","885.874"
"6.80000","0.56717","910.861"
"7.00000","0.58319","932.83"
"7.20000","0.60033","956.645"
"7.40000","0.61676","978.715"
"7.60000","0.63399","1002.01"
"7.80000","0.65032","1025.03"
"8.00000","0.66665","1046.39"
"8.20000","0.68358","1069.7"
"8.40000","0.70042","1090.99"
"8.60000","0.71644","1111"
"8.80000","0.73358","1132.5"
"9.00000","0.75021","1154.22"
"9.20000","0.76643","1175.12"
"9.40000","0.78347","1195.41"
"9.60000","0.80040","1216.89"
"9.80000","0.81703","1238.31"
"10.00000","0.83336","1257.03"
"10.20000","0.85019","1276.91"
"10.40000","0.86713","1296.72"
"10.60000","0.88336","1314.14"
"10.80000","0.90009","1333.1"
"11.00000","0.91682","1352.48"
"11.20000","0.93355","1372.32"
"11.40000","0.94998","1390.1"
"11.60000","0.96691","1410.86"
"11.80000","0.98334","1430.17"
"12.00000","1.00018","1449.16"
"12.20000","1.01681","1469.19"
"12.40000","1.03354","1487.57"
"12.60000","1.05027","1506.73"
"12.80000","1.06640","1523.89"
"13.00000","1.08373","1544.2"
"13.20000","1.10026","1561.74"
"13.40000","1.11699","1579.33"
"13.60000","1.13373","1597.15"
"13.80000","1.15066","1616.13"
"14.00000","1.16659","1632.3"
"14.20000","1.18352","1650.57"
"14.40000","1.20045","1670.08"
"14.60000","1.21708","1686.6"
"14.80000","1.23321","1705.02"
"15.00000","1.25014","1723.98"
"15.20000","1.26708","1742.54"
"15.40000","1.28310","1760.01"
"15.60000","1.30024","1778.06"
"15.80000","1.31707","1797.22"
"16.00000","1.33370","1814.25"
"16.20000","1.35003","1832.15"
"16.40000","1.36706","1851.79"
"16.60000","1.38380","1868.99"
"16.80000","1.40002","1886.21"
"17.00000","1.41696","1904.15"
"17.20000","1.43369","1922.26"
"17.40000","1.45012","1938.8"
"17.60000","1.46665","1956.64"
"17.80000","1.48388","1975.39"
"18.00000","1.50011","1992.35"
"18.20000","1.51664","2009.77"
"18.40000","1.53378","2027.43"
"18.60000","1.55041","2046.09"
"18.80000","1.56664","2062.79"
"19.00000","1.58367","2081.28"
"19.20000","1.60050","2099.09"
"19.40000","1.61673","2115.41"
"19.60000","1.63316","2131.8"
"19.80000","1.65019","2149.81"
"20.00000","1.66682","2166.88"
"20.20000","1.68305","2183.56"
"20.40000","1.70039","2202.93"
"20.60000","1.71702","2219"
"20.80000","1.73345","2236.63"
"21.00000","1.75008","2254.26"
"21.20000","1.76691","2274.22"
"21.40000","1.78374","2290.25"
"21.60000","1.79997","2307.44"
"21.80000","1.81691","2325.94"
"22.00000","1.83344","2341.95"
"22.20000","1.85017","2359.88"
"22.40000","1.86690","2378.68"
"22.60000","1.88403","2396.57"
"22.80000","1.89996","2412.98"
"23.00000","1.91679","2429.99"
"23.20000","1.93363","2448.25"
"23.40000","1.95026","2466.15"
"23.60000","1.96658","2481.85"
"23.80000","1.98352","2499.85"
"24.00000","2.00045","2518.59"
"24.20000","2.01668","2535.79"
"24.40000","2.03341","2553.28"
"24.60000","2.05044","2570.81"
"24.80000","2.06708","2587.39"
"25.00000","2.08320","2604.42"
"25.20000","2.10034","2623.64"
"25.40000","2.11687","2641"
"25.60000","2.13330","2658.33"
"25.80000","2.15023","2675.96"
"26.00000","2.16676","2693.86"
"26.20000","2.18369","2711.43"
"26.40000","2.20002","2727.78"
"26.60000","2.21726","2746.62"
"26.80000","2.23379","2762.4"
"27.00000","2.25002","2779.33"
"27.20000","2.26695","2797.39"
"27.40000","2.28388","2814.79"
"27.60000","2.30001","2830.2"
"27.80000","2.31674","2848.19"
"28.00000","2.33368","2865.15"
"28.20000","2.35010","2882.12"
"28.40000","2.36653","2898.26"
"28.60000","2.38347","2916.6"
"28.80000","2.40050","2932.35"
"29.00000","2.41673","2948.78"
"29.20000","2.43346","2966.21"
"29.40000","2.45049","2983.45"
"29.60000","2.46692","2999.21"
"29.80000","2.48335","3015.78"
"30.00000","2.50069","3033.36"
"30.20000","2.51702","3049"
"30.40000","2.53315","3066.21"
"30.60000","2.55028","3082.49"
"30.80000","2.56671","3099.35"
"31.00000","2.58334","3115.24"
"31.20000","2.59977","3132.46"
"31.40000","2.61701","3149.83"
"31.60000","2.63354","3165.16"
"31.80000","2.64986","3180.9"
"32.00000","2.66730","3198.64"
"32.20000","2.68373","3214.53"
"32.40000","2.70006","3231.01"
"32.60000","2.71679","3247.18"
"32.80000","2.73372","3264.1"
"33.00000","2.75015","3279.88"
"33.20000","2.76668","3296.43"
"33.40000","2.78392","3314.55"
"33.60000","2.80055","3329.6"
"33.80000","2.81648","3344.59"
"34.00000","2.83361","3361.62"
"34.20000","2.85034","3377.79"
"34.40000","2.86657","3393.95"
"34.60000","2.88350","3410.21"
"34.80000","2.90034","3426.53"
"35.00000","2.91697","3441.78"
"35.20000","2.93340","3458.35"
"35.40000","2.95033","3474.75"
"35.60000","2.96706","3490.21"
"35.80000","2.98359","3505.43"
"36.00000","3.00012","3521.74"
"36.20000","3.01716","3537.61"
"36.40000","3.03338","3553.24"
"36.60000","3.04981","3568.74"
"36.80000","3.06715","3585.1"
"37.00000","3.08368","3601.01"
"37.20000","3.10011","3615.93"
"37.40000","3.11704","3631.86"
"37.60000","3.13367","3646.55"
"37.80000","3.14990","3661.3"
"38.00000","3.16684","3677.02"
"38.20000","3.18377","3692.01"
"38.40000","3.20040","3708.31"
"38.60000","3.21653","3723.14"
"38.80000","3.23356","3738.52"
"39.00000","3.25039","3753.44"
"39.20000","3.26652","3767.45"
"39.40000","3.28365","3784.01"
"39.60000","3.30049","3796.48"
"39.80000","3.31692","3811.06"
"40.00000","3.33335","3825.36"
"40.20000","3.35038","3839.8"
"40.40000","3.36711","3854.76"
"40.60000","3.38354","3869.32"
"40.80000","3.40017","3882.94"
"41.00000","3.41701","3896.54"
"41.20000","3.43343","3911.22"
"41.40000","3.45007","3923.88"
"41.60000","3.46740","3938.09"
"41.80000","3.48333","3949.29"
"42.00000","3.49986","3963.22"
"42.20000","3.51689","3976.74"
"42.40000","3.53372","3988.42"
"42.60000","3.54975","4001.13"
"42.80000","3.56699","4013.71"
"43.00000","3.58392","4025.8"
"43.20000","3.60035","4037.31"
"43.40000","3.61668","4047.67"
"43.60000","3.63371","4058.27"
"43.80000","3.65034","4068.85"
"44.00000","3.66657","4079.19"
"44.20000","3.68381","4088.86"
"44.40000","3.70044","4098.25"
"44.60000","3.71677","4105.65"
"44.80000","3.73340","4111.93"
"45.00000","3.75013","4118.08"
"45.20000","3.76696","4123.64"
"45.40000","3.78329","4127.18"
"45.60000","3.80052","4128.61"
"45.80000","3.81706","4128.74"
"46.00000","3.83328","4125.42"
"46.20000","3.85012","4120.19"
"46.40000","3.86735","4112.09"
"46.60000","3.88338","4093.68"
"46.80000","3.90021","4060.97"
"47.00000","3.91704","3985.23"
"47.07800","3.92359","3258.51"
"47.08600","3.92440","2388"