File: Data_Processing/Tensile-Data/Sequence_27.csv
General : Start date,"10/29/2024 10:12 AM"
General : End date,"10/29/2024 10:13 AM"
Specimen notes : Specimen note 1,"Day 2, red, 215, batch 8, seq 27"
Test : Rate 1,"5.00000",mm/min

Time,Extension,Load
(s),(mm),(N)
"0.00000","0.00000","0.94058"
"0.20000","0.00947","10.27863"
"0.40000","0.03235","57.84563"
"0.60000","0.04979","88.92570"
"0.80000","0.06622","118.03"
"1.00000","0.08326","146.359"
"1.20000","0.10059","175.434"
"1.40000","0.11692","202.404"
"1.60000","0.13335","231.36"
"1.80000","0.15059","261.71"
"2.00000","0.16722","290.808"
"2.20000","0.18334","318.82"
"2.40000","0.20028","347.316"
"2.60000","0.21701","376.319"
"2.80000","0.23344","403.884"
"3.00000","0.24997","432.23"
"3.20000","0.26690","459.968"
"3.40000","0.28373","486.837"
"3.60000","0.29956","514.141"
"3.80000","0.31710","543.446"
"4.00000","0.33353","570.709"
"4.20000","0.35006","598.622"
"4.40000","0.36709","625.754"
"4.60000","0.38392","653.91"
"4.80000","0.40025","680.42"
"5.00000","0.41688","706.067"
"5.20000","0.43382","734.087"
"5.40000","0.45045","760.489"
"5.60000","0.46667","786.498"
"5.80000","0.48361","813.874"
"6.00000","0.50044","840.24"
"6.20000","0.51647","865.611"
"6.40000","0.53330","892.34"
"6.60000","0.55043","920.036"
"6.80000","0.56696","945.885"
"7.00000","0.58319","969.538"
"7.20000","0.60023","996.088"
"7.40000","0.61726","1023.74"
"7.60000","0.63349","1048.62"
"7.80000","0.65022","1075.01"
"8.00000","0.66715","1099.58"
"8.20000","0.68368","1126.09"
"8.40000","0.69991","1150.45"
"8.60000","0.71705","1176.35"
"8.80000","0.73348","1202.06"
"9.00000","0.74970","1225.88"
"9.20000","0.76684","1250.67"
"9.40000","0.78347","1276.16"
"9.60000","0.80000","1299.59"
"9.80000","0.81683","1324.14"
"10.00000","0.83376","1349.55"
"10.20000","0.85050","1373"
"10.40000","0.86662","1396.72"
"10.60000","0.88376","1420.19"
"10.80000","0.90049","1444.22"
"11.00000","0.91672","1466.53"
"11.20000","0.93335","1490.56"
"11.40000","0.95038","1513.92"
"11.60000","0.96681","1536.47"
"11.80000","0.98344","1558.54"
"12.00000","0.99997","1583.17"
"12.20000","1.01721","1606.5"
"12.40000","1.03313","1628.61"
"12.60000","1.05037","1651.82"
"12.80000","1.06700","1674.81"
"13.00000","1.08353","1697.09"
"13.20000","1.10006","1718.04"
"13.40000","1.11740","1741.51"
"13.60000","1.13353","1762.3"
"13.80000","1.15006","1784.84"
"14.00000","1.16699","1807.92"
"14.20000","1.18372","1830.42"
"14.40000","1.19985","1852.12"
"14.60000","1.21668","1873.49"
"14.80000","1.23392","1896.15"
"15.00000","1.25045","1916.43"
"15.20000","1.26647","1937.46"
"15.40000","1.28381","1959.28"
"15.60000","1.30044","1979.6"
"15.80000","1.31657","2000.03"
"16.00000","1.33360","2020.49"
"16.20000","1.35063","2041.31"
"16.40000","1.36686","2062.33"
"16.60000","1.38349","2082.72"
"16.80000","1.40033","2102.32"
"17.00000","1.41716","2121.88"
"17.20000","1.43318","2141.06"
"17.40000","1.45032","2161.45"
"17.60000","1.46715","2180.31"
"17.80000","1.48318","2199.58"
"18.00000","1.50021","2219.56"
"18.20000","1.51715","2237.88"
"18.40000","1.53368","2255.58"
"18.60000","1.55011","2273.96"
"18.80000","1.56724","2293.25"
"19.00000","1.58377","2310.52"
"19.20000","1.59990","2327.52"
"19.40000","1.61673","2345.62"
"19.60000","1.63366","2363.74"
"19.80000","1.64999","2381.47"
"20.00000","1.66662","2399.84"
"20.20000","1.68366","2418.07"
"20.40000","1.70019","2435.93"
"20.60000","1.71662","2453.44"
"20.80000","1.73365","2472"
"21.00000","1.75068","2489.95"
"21.20000","1.76681","2506.97"
"21.40000","1.78364","2525.91"
"21.60000","1.80017","2543.01"
"21.80000","1.81711","2560.05"
"22.00000","1.83313","2577.01"
"22.20000","1.85047","2594.74"
"22.40000","1.86700","2612.56"
"22.60000","1.88313","2628.31"
"22.80000","1.90026","2647"
"23.00000","1.91699","2664.92"
"23.20000","1.93373","2682.43"
"23.40000","1.95026","2699.21"
"23.60000","1.96699","2716.73"
"23.80000","1.98362","2734.7"
"24.00000","2.00015","2750.51"
"24.20000","2.01698","2767.78"
"24.40000","2.03381","2785.18"
"24.60000","2.05004","2802.83"
"24.80000","2.06677","2820.19"
"25.00000","2.08381","2837.12"
"25.20000","2.10014","2854.58"
"25.40000","2.11667","2870.06"
"25.60000","2.13350","2887.24"
"25.80000","2.15033","2904.74"
"26.00000","2.16676","2921.12"
"26.20000","2.18349","2938.53"
"26.40000","2.20053","2954.62"
"26.60000","2.21706","2970.66"
"26.80000","2.23339","2987.02"
"27.00000","2.25052","3003.73"
"27.20000","2.26705","3019.74"
"27.40000","2.28328","3035.06"
"27.60000","2.30051","3051.46"
"27.80000","2.31684","3068.42"
"28.00000","2.33337","3083.5"
"28.20000","2.34990","3099.32"
"28.40000","2.36694","3116.57"
"28.60000","2.38347","3132.51"
"28.80000","2.40000","3147.63"
"29.00000","2.41703","3163.76"
"29.20000","2.43376","3179.48"
"29.40000","2.44979","3194.09"
"29.60000","2.46703","3210.31"
"29.80000","2.48386","3226.54"
"30.00000","2.49998","3241.95"
"30.20000","2.51682","3257.39"
"30.40000","2.53385","3274.01"
"30.60000","2.55038","3289.37"
"30.80000","2.56641","3304.19"
"31.00000","2.58344","3320.51"
"31.20000","2.60007","3335.52"
"31.40000","2.61650","3350.54"
"31.60000","2.63354","3365.53"
"31.80000","2.65047","3381.1"
"32.00000","2.66710","3395.8"
"32.20000","2.68343","3410.42"
"32.40000","2.70077","3427.13"
"32.60000","2.71669","3441.39"
"32.80000","2.73352","3456.39"
"33.00000","2.75036","3472.14"
"33.20000","2.76709","3486.81"
"33.40000","2.78342","3501.56"
"33.60000","2.79995","3516.59"
"33.80000","2.81708","3532.78"
"34.00000","2.83381","3546.66"
"34.20000","2.84984","3561.28"
"34.40000","2.86697","3576.68"
"34.60000","2.88381","3590.34"
"34.80000","2.89993","3604.76"
"35.00000","2.91687","3619.45"
"35.20000","2.93380","3634.06"
"35.40000","2.95033","3647.98"
"35.60000","2.96676","3662.35"
"35.80000","2.98329","3676.89"
"36.00000","3.00053","3691.97"
"36.20000","3.01655","3705.94"
"36.40000","3.03359","3720.45"
"36.60000","3.05022","3735.4"
"36.80000","3.06695","3749.89"
"37.00000","3.08338","3763.59"
"37.20000","3.10061","3776.85"
"37.40000","3.11684","3791.74"
"37.60000","3.13347","3805.18"
"37.80000","3.15041","3819.61"
"38.00000","3.16704","3832.96"
"38.20000","3.18337","3845.51"
"38.40000","3.20020","3861.08"
"38.60000","3.21733","3874.66"
"38.80000","3.23366","3887.25"
"39.00000","3.24989","3900.85"
"39.20000","3.26692","3915.09"
"39.40000","3.28376","3928.31"
"39.60000","3.29998","3941.56"
"39.80000","3.31682","3954.35"
"40.00000","3.33375","3967.46"
"40.20000","3.35018","3980.49"
"40.40000","3.36671","3991.36"
"40.60000","3.38364","4004.2"
"40.80000","3.40058","4016.2"
"41.00000","3.41650","4027.65"
"41.20000","3.43374","4040.85"
"41.40000","3.45027","4051.92"
"41.60000","3.46680","4063.94"
"41.80000","3.48343","4075.85"
"42.00000","3.50056","4087.32"
"42.20000","3.51669","4098.13"
"42.40000","3.53322","4108.85"
"42.60000","3.55046","4120.03"
"42.80000","3.56709","4130.92"
"43.00000","3.58342","4141.73"
"43.20000","3.60015","4151.53"
"43.40000","3.61728","4161.79"
"43.60000","3.63361","4170.35"
"43.80000","3.65004","4179.01"
"44.00000","3.66748","4187.93"
"44.20000","3.68350","4195.24"
"44.40000","3.69993","4201.54"
"44.60000","3.71697","4210.13"
"44.80000","3.73380","4216.44"
"45.00000","3.74993","4220.22"
"45.20000","3.76686","4226.1"
"45.40000","3.78359","4230.19"
"45.60000","3.80042","4233.77"
"45.80000","3.81655","4234.16"
"46.00000","3.83389","4236.31"
"46.20000","3.85042","4235.83"
"46.40000","3.86685","4233.79"
"46.60000","3.88348","4228.43"
"46.80000","3.90021","4223.51"
"47.00000","3.91674","4214.35"
"47.20000","3.93337","4202.02"
"47.40000","3.95030","4188.29"
"47.60000","3.96693","4170.26"
"47.80000","3.98336","4143.55"
"48.00000","4.00030","4105.32"
"48.20000","4.01733","4006.21"
"48.23000","4.01995","3320.8"
"48.23800","4.02076","2439.28"
"48.24000","4.02096","2213.91"