File: Data_Processing/Tensile-Data/Sequence_11.csv
General : Start date,"10/22/2024 9:41 AM"
General : End date,"10/22/2024 9:42 AM"
Specimen notes : Specimen note 1,"red, 200, batch 3, seq 11"
Test : Rate 1,"5.00000",mm/min

Time,Extension,Load
(s),(mm),(N)
"0.00000","0.00000","0.31678"
"0.20000","0.01008","11.61442"
"0.40000","0.03286","57.71466"
"0.60000","0.04949","88.88014"
"0.80000","0.06683","118.946"
"1.00000","0.08396","140.974"
"1.20000","0.10019","169.517"
"1.40000","0.11702","198.131"
"1.60000","0.13385","228.658"
"1.80000","0.15008","257.839"
"2.00000","0.16681","286.676"
"2.20000","0.18395","317.571"
"2.40000","0.20018","345.22"
"2.60000","0.21681","375.796"
"2.80000","0.23364","405.825"
"3.00000","0.25037","434.957"
"3.20000","0.26660","463.745"
"3.40000","0.28353","492.717"
"3.60000","0.30067","522.287"
"3.80000","0.31679","551.705"
"4.00000","0.33343","579.432"
"4.20000","0.35016","609.019"
"4.40000","0.36719","638.628"
"4.60000","0.38312","666.882"
"4.80000","0.40025","696.554"
"5.00000","0.41698","724.641"
"5.20000","0.43341","752.585"
"5.40000","0.45025","782.476"
"5.60000","0.46728","811.143"
"5.80000","0.48351","838.271"
"6.00000","0.50004","866.128"
"6.20000","0.51707","894.423"
"6.40000","0.53380","923.344"
"6.60000","0.55013","949.882"
"6.80000","0.56686","978.232"
"7.00000","0.58390","1006.95"
"7.20000","0.60013","1034.2"
"7.40000","0.61666","1061.33"
"7.60000","0.63369","1088.57"
"7.80000","0.65012","1115.99"
"8.00000","0.66635","1142.53"
"8.20000","0.68378","1171.42"
"8.40000","0.70042","1199.45"
"8.60000","0.71695","1226.37"
"8.80000","0.73368","1253.72"
"9.00000","0.75031","1280.3"
"9.20000","0.76714","1307.74"
"9.40000","0.78327","1332.72"
"9.60000","0.80050","1361.36"
"9.80000","0.81703","1387.87"
"10.00000","0.83336","1414.32"
"10.20000","0.85009","1440.3"
"10.40000","0.86703","1467.81"
"10.60000","0.88366","1494.34"
"10.80000","0.90019","1519.34"
"11.00000","0.91712","1546.51"
"11.20000","0.93335","1572.78"
"11.40000","0.94988","1597.78"
"11.60000","0.96681","1623.74"
"11.80000","0.98385","1650.85"
"12.00000","0.99997","1675.53"
"12.20000","1.01671","1700.9"
"12.40000","1.03384","1727.5"
"12.60000","1.05027","1753.18"
"12.80000","1.06660","1776.28"
"13.00000","1.08353","1802.66"
"13.20000","1.10057","1827.9"
"13.40000","1.11649","1851.35"
"13.60000","1.13353","1877.17"
"13.80000","1.15006","1902.69"
"14.00000","1.16719","1928.5"
"14.20000","1.18322","1952.76"
"14.40000","1.20035","1978.6"
"14.60000","1.21718","2002.73"
"14.80000","1.23321","2027.2"
"15.00000","1.25034","2053.04"
"15.20000","1.26708","2075.67"
"15.40000","1.28351","2099.39"
"15.60000","1.30004","2124.76"
"15.80000","1.31717","2148.66"
"16.00000","1.33350","2172.3"
"16.20000","1.34993","2194.95"
"16.40000","1.36666","2218.88"
"16.60000","1.38390","2243.9"
"16.80000","1.39992","2267.42"
"17.00000","1.41706","2290.92"
"17.20000","1.43389","2314.95"
"17.40000","1.45012","2338.57"
"17.60000","1.46675","2360.73"
"17.80000","1.48368","2384.81"
"18.00000","1.50031","2407.19"
"18.20000","1.51654","2429.91"
"18.40000","1.53347","2454.43"
"18.60000","1.55051","2476.93"
"18.80000","1.56684","2499.85"
"19.00000","1.58347","2522.98"
"19.20000","1.60050","2546.01"
"19.40000","1.61713","2567.61"
"19.60000","1.63336","2590.48"
"19.80000","1.65060","2612.32"
"20.00000","1.66693","2635.46"
"20.20000","1.68335","2657.43"
"20.40000","1.70019","2678.97"
"20.60000","1.71702","2701.39"
"20.80000","1.73345","2723.15"
"21.00000","1.74998","2745.22"
"21.20000","1.76711","2767.54"
"21.40000","1.78364","2789.28"
"21.60000","1.79987","2810.92"
"21.80000","1.81691","2832.93"
"22.00000","1.83404","2855.16"
"22.20000","1.85007","2876.89"
"22.40000","1.86680","2897.38"
"22.60000","1.88373","2921.01"
"22.80000","1.90046","2942.25"
"23.00000","1.91679","2961.1"
"23.20000","1.93363","2983.04"
"23.40000","1.95046","3005.16"
"23.60000","1.96679","3023.03"
"23.80000","1.98352","3044.6"
"24.00000","2.00025","3064.86"
"24.20000","2.01688","3084.92"
"24.40000","2.03311","3105.8"
"24.60000","2.05044","3126.66"
"24.80000","2.06677","3146.85"
"25.00000","2.08361","3166.55"
"25.20000","2.10034","3187.31"
"25.40000","2.11717","3206.12"
"25.60000","2.13350","3225.83"
"25.80000","2.15003","3244.76"
"26.00000","2.16706","3265.4"
"26.20000","2.18379","3285.3"
"26.40000","2.19982","3302.96"
"26.60000","2.21696","3323.69"
"26.80000","2.23369","3342.58"
"27.00000","2.24992","3361.53"
"27.20000","2.26685","3380.15"
"27.40000","2.28368","3400.07"
"27.60000","2.30031","3418.93"
"27.80000","2.31664","3436.85"
"28.00000","2.33357","3455.25"
"28.20000","2.35061","3474.14"
"28.40000","2.36653","3490.41"
"28.60000","2.38377","3509.78"
"28.80000","2.40050","3527.63"
"29.00000","2.41673","3545.68"
"29.20000","2.43336","3562.54"
"29.40000","2.45049","3581.28"
"29.60000","2.46672","3597.14"
"29.80000","2.48315","3614.36"
"30.00000","2.50019","3631.48"
"30.20000","2.51722","3649.54"
"30.40000","2.53325","3665.03"
"30.60000","2.55028","3682.37"
"30.80000","2.56742","3699.87"
"31.00000","2.58354","3715.96"
"31.20000","2.59997","3731.63"
"31.40000","2.61711","3746.85"
"31.60000","2.63354","3763.25"
"31.80000","2.65017","3778.21"
"32.00000","2.66690","3677.2"
"32.20000","2.68373","3704.47"
"32.40000","2.70006","3723.09"
"32.60000","2.71669","3741.67"
"32.80000","2.73362","3762.29"
"33.00000","2.75056","3779.63"
"33.20000","2.76638","3795.68"
"33.40000","2.78382","3813.62"
"33.60000","2.80035","3789.23"
"33.80000","2.81668","3810.94"
"34.00000","2.83371","3827.98"
"34.20000","2.85044","3845.59"
"34.40000","2.86687","3862.95"
"34.60000","2.88350","3879.81"
"34.80000","2.90044","3895.53"
"35.00000","2.91707","3911.88"
"35.20000","2.93320","3925.94"
"35.40000","2.95013","3941.83"
"35.60000","2.96736","3957.81"
"35.80000","2.98359","3971.44"
"36.00000","3.00012","3985.54"
"36.20000","3.01736","4001.29"
"36.40000","3.03359","4014.02"
"36.60000","3.04991","4025.56"
"36.80000","3.06695","4038.63"
"37.00000","3.08378","4051.41"
"37.20000","3.10011","4061.41"
"37.40000","3.11664","4071.34"
"37.60000","3.13357","4082.14"
"37.80000","3.15041","4091.32"
"38.00000","3.16643","4096.69"
"38.20000","3.18377","4102.58"
"38.40000","3.20040","4103.12"
"38.60000","3.21653","4100.21"
"38.80000","3.23356","4088.65"
"39.00000","3.25029","4052.27"
"39.16400","3.26390","3620.41"
"39.17200","3.26471","2858.79"
"39.17800","3.26541","2195.5"