File: Data_Processing/Tensile-Data/Sequence_57.csv
General : Start date,"11/5/2024 8:48 AM"
General : End date,"11/5/2024 8:49 AM"
Specimen notes : Specimen note 1,"Day 3, blue, 230, batch 18, seq 57"
Test : Rate 1,"5.00000",mm/min

Time,Extension,Load
(s),(mm),(N)
"0.00000","0.00000","0.83345"
"0.20000","0.01038","11.98300"
"0.40000","0.03246","56.36654"
"0.60000","0.04959","87.54378"
"0.80000","0.06683","116.197"
"1.00000","0.08376","144.887"
"1.20000","0.10009","172.294"
"1.40000","0.11682","198.809"
"1.60000","0.13365","225.751"
"1.80000","0.15038","254.177"
"2.00000","0.16661","279.968"
"2.20000","0.18365","307.801"
"2.40000","0.20048","334.534"
"2.60000","0.21650","360.195"
"2.80000","0.23354","388.715"
"3.00000","0.25027","415.534"
"3.20000","0.26680","441.148"
"3.40000","0.28323","466.717"
"3.60000","0.30037","494.047"
"3.80000","0.31700","519.129"
"4.00000","0.33343","545.05"
"4.20000","0.35016","570.152"
"4.40000","0.36709","596.099"
"4.60000","0.38332","620.807"
"4.80000","0.39985","644.957"
"5.00000","0.41718","670.135"
"5.20000","0.43321","694.175"
"5.40000","0.44984","718.17"
"5.60000","0.46698","742.637"
"5.80000","0.48351","765.196"
"6.00000","0.50014","790.168"
"6.20000","0.51697","812.999"
"6.40000","0.53380","837.08"
"6.60000","0.55033","859.528"
"6.80000","0.56666","880.83"
"7.00000","0.58370","902.416"
"7.20000","0.60043","923.523"
"7.40000","0.61645","945.184"
"7.60000","0.63349","967.053"
"7.80000","0.65032","988.177"
"8.00000","0.66665","1008.51"
"8.20000","0.68328","1029.42"
"8.40000","0.70031","1050.96"
"8.60000","0.71684","1070.55"
"8.80000","0.73348","1090.91"
"9.00000","0.75021","1111.66"
"9.20000","0.76704","1131.81"
"9.40000","0.78347","1150.45"
"9.60000","0.80010","1170.89"
"9.80000","0.81713","1191.46"
"10.00000","0.83326","1210.91"
"10.20000","0.84989","1228.09"
"10.40000","0.86683","1247.38"
"10.60000","0.88336","1265.97"
"10.80000","0.89968","1281.76"
"11.00000","0.91682","1300.48"
"11.20000","0.93355","1317.66"
"11.40000","0.95018","1334.93"
"11.60000","0.96661","1351.86"
"11.80000","0.98365","1369.53"
"12.00000","1.00038","1386.35"
"12.20000","1.01650","1404.33"
"12.40000","1.03364","1422.7"
"12.60000","1.05047","1438.76"
"12.80000","1.06670","1453.89"
"13.00000","1.08343","1471.32"
"13.20000","1.10006","1488.04"
"13.40000","1.11679","1504.22"
"13.60000","1.13322","1520.65"
"13.80000","1.15026","1537.34"
"14.00000","1.16689","1553.46"
"14.20000","1.18322","1569.61"
"14.40000","1.19985","1585.5"
"14.60000","1.21718","1603.38"
"14.80000","1.23341","1618.77"
"15.00000","1.25024","1636.91"
"15.20000","1.26718","1652.22"
"15.40000","1.28361","1668.12"
"15.60000","1.29994","1683.51"
"15.80000","1.31687","1701.52"
"16.00000","1.33380","1717.08"
"16.20000","1.34993","1732.51"
"16.40000","1.36666","1749.99"
"16.60000","1.38349","1765.99"
"16.80000","1.40033","1782.73"
"17.00000","1.41645","1798.84"
"17.20000","1.43379","1816.04"
"17.40000","1.45052","1830.96"
"17.60000","1.46645","1846.62"
"17.80000","1.48378","1862.02"
"18.00000","1.50031","1878.81"
"18.20000","1.51684","1893.88"
"18.40000","1.53317","1909.16"
"18.60000","1.55041","1925.79"
"18.80000","1.56694","1940.8"
"19.00000","1.58317","1957.44"
"19.20000","1.60020","1974.05"
"19.40000","1.61713","1990.13"
"19.60000","1.63326","2005"
"19.80000","1.65019","2020.84"
"20.00000","1.66682","2038.46"
"20.20000","1.68346","2054.18"
"20.40000","1.70009","2069.86"
"20.60000","1.71692","2087.09"
"20.80000","1.73365","2102.38"
"21.00000","1.74978","2118.05"
"21.20000","1.76661","2132.97"
"21.40000","1.78364","2148.91"
"21.60000","1.79987","2163.84"
"21.80000","1.81670","2180.37"
"22.00000","1.83384","2196.32"
"22.20000","1.85027","2213.55"
"22.40000","1.86650","2227.78"
"22.60000","1.88363","2245.8"
"22.80000","1.90006","2260.95"
"23.00000","1.91669","2276.98"
"23.20000","1.93322","2292.96"
"23.40000","1.95036","2309.31"
"23.60000","1.96669","2324.58"
"23.80000","1.98352","2341.02"
"24.00000","2.00035","2356.45"
"24.20000","2.01688","2371.71"
"24.40000","2.03321","2387.68"
"24.60000","2.05034","2402.59"
"24.80000","2.06687","2417.84"
"25.00000","2.08340","2434.36"
"25.20000","2.10014","2448.81"
"25.40000","2.11697","2465.72"
"25.60000","2.13370","2481.08"
"25.80000","2.14983","2496.4"
"26.00000","2.16696","2511.52"
"26.20000","2.18379","2527.91"
"26.40000","2.20002","2542.9"
"26.60000","2.21655","2557.33"
"26.80000","2.23359","2572.82"
"27.00000","2.25012","2588.11"
"27.20000","2.26645","2603.32"
"27.40000","2.28358","2620.05"
"27.60000","2.30021","2635.52"
"27.80000","2.31684","2649.96"
"28.00000","2.33347","2666.44"
"28.20000","2.35041","2681.61"
"28.40000","2.36694","2697.37"
"28.60000","2.38316","2711.52"
"28.80000","2.40050","2727.37"
"29.00000","2.41693","2742.39"
"29.20000","2.43346","2756.96"
"29.40000","2.45019","2772.53"
"29.60000","2.46682","2787.25"
"29.80000","2.48315","2802.52"
"30.00000","2.50009","2817.33"
"30.20000","2.51692","2833.62"
"30.40000","2.53365","2848.43"
"30.60000","2.54988","2863.52"
"30.80000","2.56701","2879.1"
"31.00000","2.58384","2893.66"
"31.20000","2.59987","2909.59"
"31.40000","2.61711","2925.72"
"31.60000","2.63384","2940.16"
"31.80000","2.65017","2954.4"
"32.00000","2.66650","2969.43"
"32.20000","2.68343","2984.79"
"32.40000","2.69996","2999.37"
"32.60000","2.71639","3014.14"
"32.80000","2.73342","3029.89"
"33.00000","2.75026","3045.62"
"33.20000","2.76668","3059.71"
"33.40000","2.78332","3074.29"
"33.60000","2.80055","3089.88"
"33.80000","2.81668","3105.19"
"34.00000","2.83331","3119.73"
"34.20000","2.85044","3136.52"
"34.40000","2.86697","3151.18"
"34.60000","2.88320","3165.37"
"34.80000","2.90014","3180.92"
"35.00000","2.91717","3195.88"
"35.20000","2.93360","3210.59"
"35.40000","2.94993","3224.63"
"35.60000","2.96706","3239.41"
"35.80000","2.98349","3254.8"
"36.00000","2.99972","3269.79"
"36.20000","3.01695","3283.8"
"36.40000","3.03359","3299.14"
"36.60000","3.05002","3313.49"
"36.80000","3.06685","3328.24"
"37.00000","3.08368","3343.83"
"37.20000","3.10041","3356.8"
"37.40000","3.11664","3370.28"
"37.60000","3.13367","3386.21"
"37.80000","3.15031","3400.74"
"38.00000","3.16643","3414.07"
"38.20000","3.18337","3428.88"
"38.40000","3.20040","3443.71"
"38.60000","3.21673","3458.15"
"38.80000","3.23346","3472.01"
"39.00000","3.25039","3485.32"
"39.20000","3.26682","3499.84"
"39.40000","3.28325","3513.22"
"39.60000","3.30029","3527.87"
"39.80000","3.31712","3541.49"
"40.00000","3.33345","3555.58"
"40.20000","3.35008","3568.17"
"40.40000","3.36701","3582.46"
"40.60000","3.38344","3595.61"
"40.80000","3.39967","3606.82"
"41.00000","3.41711","3622.23"
"41.20000","3.43364","3635.81"
"41.40000","3.44996","3648.01"
"41.60000","3.46680","3661.24"
"41.80000","3.48353","3674.4"
"42.00000","3.50046","3687.8"
"42.20000","3.51659","3699.71"
"42.40000","3.53372","3712.81"
"42.60000","3.55035","3724.52"
"42.80000","3.56658","3736.22"
"43.00000","3.58352","3748.3"
"43.20000","3.60045","3760.83"
"43.40000","3.61637","3770.08"
"43.60000","3.63331","3782.61"
"43.80000","3.65024","3792.32"
"44.00000","3.66687","3803.94"
"44.20000","3.68340","3813.61"
"44.40000","3.70024","3825.04"
"44.60000","3.71727","3835.27"
"44.80000","3.73319","3842.84"
"45.00000","3.75013","3853.23"
"45.20000","3.76706","3860.29"
"45.40000","3.78329","3870.49"
"45.60000","3.80012","3877.46"
"45.80000","3.81695","3884.95"
"46.00000","3.83359","3890.88"
"46.20000","3.84991","3896.36"
"46.40000","3.86685","3900.32"
"46.60000","3.88358","3903.02"
"46.80000","3.90021","3905.99"
"47.00000","3.91664","3904.78"
"47.20000","3.93387","3904.55"
"47.40000","3.95020","3899.08"
"47.60000","3.96653","3891.75"
"47.80000","3.98377","3881.96"
"48.00000","4.00030","3866.22"
"48.20000","4.01673","3839.17"
"48.40000","4.03356","3791.43"
"48.57400","4.04817","3412.46"
"48.58200","4.04898","2701.7"
"48.58800","4.04959","2073.06"