File: Data_Processing/Tensile-Data/Sequence_23.csv
General : Start date,"10/29/2024 10:01 AM"
General : End date,"10/29/2024 10:02 AM"
Specimen notes : Specimen note 1,"Day 2, green, 215, batch 4, seq 23"
Test : Rate 1,"5.00000",mm/min

Time,Extension,Load
(s),(mm),(N)
"0.00000","0.00000","0.41978"
"0.20000","0.00947","0.39705"
"0.40000","0.02278","7.44878"
"0.60000","0.04858","52.23818"
"0.80000","0.06572","79.13815"
"1.00000","0.08346","106.339"
"1.20000","0.10009","131.64"
"1.40000","0.11682","154.429"
"1.60000","0.13385","178.379"
"1.80000","0.15018","200.442"
"2.00000","0.16691","220.59"
"2.20000","0.18344","240.833"
"2.40000","0.20058","260.309"
"2.60000","0.21661","278.552"
"2.80000","0.23324","298.16"
"3.00000","0.25047","317.379"
"3.20000","0.26710","336.4"
"3.40000","0.28333","353.056"
"3.60000","0.30057","371.549"
"3.80000","0.31740","388.735"
"4.00000","0.33353","401.776"
"4.20000","0.35036","416.206"
"4.40000","0.36699","429.798"
"4.60000","0.38382","444.275"
"4.80000","0.39995","458.344"
"5.00000","0.41708","473.151"
"5.20000","0.43372","487.025"
"5.40000","0.44994","500.91"
"5.60000","0.46688","515.097"
"5.80000","0.48401","528.895"
"6.00000","0.50034","542.899"
"6.20000","0.51677","556.2"
"6.40000","0.53380","570.69"
"6.60000","0.55043","584.257"
"6.80000","0.56666","597.707"
"7.00000","0.58370","612.738"
"7.20000","0.60023","626.461"
"7.40000","0.61696","640.37"
"7.60000","0.63349","654.147"
"7.80000","0.65052","668.786"
"8.00000","0.66675","682.136"
"8.20000","0.68338","696.357"
"8.40000","0.70031","711.088"
"8.60000","0.71715","726.035"
"8.80000","0.73327","738.314"
"9.00000","0.75021","752.928"
"9.20000","0.76704","767.207"
"9.40000","0.78347","781.404"
"9.60000","0.80020","795.749"
"9.80000","0.81703","809.559"
"10.00000","0.83376","825.163"
"10.20000","0.84999","838.01"
"10.40000","0.86713","853.86"
"10.60000","0.88376","867.658"
"10.80000","0.90029","881.205"
"11.00000","0.91682","895.32"
"11.20000","0.93355","909.485"
"11.40000","0.95018","924.108"
"11.60000","0.96661","937.779"
"11.80000","0.98365","952.883"
"12.00000","1.00038","967.473"
"12.20000","1.01660","980.794"
"12.40000","1.03364","995.06"
"12.60000","1.05057","1010.38"
"12.80000","1.06680","1023.14"
"13.00000","1.08343","1037.66"
"13.20000","1.10046","1051.36"
"13.40000","1.11730","1065.68"
"13.60000","1.13322","1077.74"
"13.80000","1.15006","1093.11"
"14.00000","1.16648","1105.29"
"14.20000","1.18322","1119.04"
"14.40000","1.19995","1133.27"
"14.60000","1.21698","1145.77"
"14.80000","1.23381","1159.62"
"15.00000","1.24974","1172.31"
"15.20000","1.26728","1186.58"
"15.40000","1.28351","1198.68"
"15.60000","1.30034","1211.25"
"15.80000","1.31717","1224.36"
"16.00000","1.33380","1238.11"
"16.20000","1.35013","1250.53"
"16.40000","1.36666","1264.16"
"16.60000","1.38370","1277.01"
"16.80000","1.40053","1289.56"
"17.00000","1.41655","1302.64"
"17.20000","1.43379","1316.21"
"17.40000","1.45042","1330.13"
"17.60000","1.46655","1343.66"
"17.80000","1.48348","1357.73"
"18.00000","1.50041","1370.05"
"18.20000","1.51694","1383.61"
"18.40000","1.53347","1396.58"
"18.60000","1.55021","1410.69"
"18.80000","1.56744","1425.59"
"19.00000","1.58317","1437.1"
"19.20000","1.60040","1452.22"
"19.40000","1.61703","1465.3"
"19.60000","1.63336","1478.53"
"19.80000","1.64989","1492.13"
"20.00000","1.66713","1505.43"
"20.20000","1.68335","1518.84"
"20.40000","1.70009","1532.82"
"20.60000","1.71702","1546.96"
"20.80000","1.73375","1561.68"
"21.00000","1.74998","1574.84"
"21.20000","1.76691","1589.14"
"21.40000","1.78395","1603.48"
"21.60000","1.80038","1618.23"
"21.80000","1.81670","1631.41"
"22.00000","1.83404","1645.3"
"22.20000","1.85037","1659.49"
"22.40000","1.86670","1672.85"
"22.60000","1.88343","1686.6"
"22.80000","1.90016","1701.6"
"23.00000","1.91669","1713.99"
"23.20000","1.93342","1727.79"
"23.40000","1.95036","1741.32"
"23.60000","1.96729","1754.84"
"23.80000","1.98332","1767.82"
"24.00000","2.00035","1783.45"
"24.20000","2.01708","1797.37"
"24.40000","2.03351","1811.35"
"24.60000","2.05014","1824.47"
"24.80000","2.06718","1839.91"
"25.00000","2.08351","1853.84"
"25.20000","2.10004","1867.41"
"25.40000","2.11707","1882.37"
"25.60000","2.13360","1896.47"
"25.80000","2.15003","1910.17"
"26.00000","2.16666","1924.7"
"26.20000","2.18379","1939.03"
"26.40000","2.20043","1953.72"
"26.60000","2.21675","1967.92"
"26.80000","2.23409","1983.07"
"27.00000","2.25032","1996.59"
"27.20000","2.26665","2010.52"
"27.40000","2.28368","2026.29"
"27.60000","2.30051","2041.54"
"27.80000","2.31674","2054.47"
"28.00000","2.33347","2069.8"
"28.20000","2.35031","2083.98"
"28.40000","2.36724","2099.86"
"28.60000","2.38316","2113.32"
"28.80000","2.40040","2128.32"
"29.00000","2.41713","2142.72"
"29.20000","2.43326","2157.37"
"29.40000","2.45019","2172.22"
"29.60000","2.46713","2187.08"
"29.80000","2.48356","2200.26"
"30.00000","2.50019","2215.34"
"30.20000","2.51712","2230.31"
"30.40000","2.53355","2244.49"
"30.60000","2.54988","2257.97"
"30.80000","2.56701","2273.89"
"31.00000","2.58405","2288.42"
"31.20000","2.59997","2301.79"
"31.40000","2.61680","2317.43"
"31.60000","2.63394","2331.62"
"31.80000","2.65007","2345.67"
"32.00000","2.66680","2360.22"
"32.20000","2.68373","2375.55"
"32.40000","2.70077","2389.65"
"32.60000","2.71669","2403.95"
"32.80000","2.73352","2418.39"
"33.00000","2.75036","2433.65"
"33.20000","2.76689","2447.73"
"33.40000","2.78332","2462.32"
"33.60000","2.80025","2477.09"
"33.80000","2.81708","2491.52"
"34.00000","2.83311","2504.91"
"34.20000","2.85034","2520.81"
"34.40000","2.86697","2535.92"
"34.60000","2.88381","2549.65"
"34.80000","2.90044","2564.73"
"35.00000","2.91727","2579.18"
"35.20000","2.93360","2593.22"
"35.40000","2.95013","2608.01"
"35.60000","2.96706","2622.39"
"35.80000","2.98379","2635.97"
"36.00000","3.00002","2651.1"
"36.20000","3.01665","2665.02"
"36.40000","3.03369","2679.94"
"36.60000","3.05002","2693.47"
"36.80000","3.06685","2707.97"
"37.00000","3.08378","2724.46"
"37.20000","3.10041","2738.4"
"37.40000","3.11684","2752.7"
"37.60000","3.13357","2767.48"
"37.80000","3.15051","2781.54"
"38.00000","3.16694","2795.64"
"38.20000","3.18357","2810.5"
"38.40000","3.20040","2825.65"
"38.60000","3.21723","2841.02"
"38.80000","3.23316","2854.19"
"39.00000","3.25039","2868.48"
"39.20000","3.26672","2882.91"
"39.40000","3.28355","2897.43"
"39.60000","3.30008","2911.07"
"39.80000","3.31682","2925.69"
"40.00000","3.33335","2940.22"
"40.20000","3.34988","2953.88"
"40.40000","3.36711","2969.72"
"40.60000","3.38384","2982.79"
"40.80000","3.39997","2996.98"
"41.00000","3.41711","3011"
"41.20000","3.43384","3026.11"
"41.40000","3.44986","3038.42"
"41.60000","3.46670","3053.38"
"41.80000","3.48373","3067.89"
"42.00000","3.50036","3082.61"
"42.20000","3.51659","3095.6"
"42.40000","3.53352","3110.62"
"42.60000","3.55056","3123.83"
"42.80000","3.56658","3136.98"
"43.00000","3.58372","3150.64"
"43.20000","3.60035","3164.32"
"43.40000","3.61708","3179.39"
"43.60000","3.63341","3192.46"
"43.80000","3.65064","3207.08"
"44.00000","3.66687","3219.81"
"44.20000","3.68350","3233.77"
"44.40000","3.70034","3246.27"
"44.60000","3.71707","3260.73"
"44.80000","3.73330","3273.93"
"45.00000","3.74983","3286.54"
"45.20000","3.76716","3301.58"
"45.40000","3.78369","3314.1"
"45.60000","3.80002","3326.59"
"45.80000","3.81716","3340.03"
"46.00000","3.83379","3352.88"
"46.20000","3.85001","3365.12"
"46.40000","3.86705","3379.05"
"46.60000","3.88388","3392.26"
"46.80000","3.90021","3405.01"
"47.00000","3.91694","3417.88"
"47.20000","3.93337","3430.35"
"47.40000","3.95040","3443.57"
"47.60000","3.96653","3456.09"
"47.80000","3.98377","3468.93"
"48.00000","4.00040","3481.55"
"48.20000","4.01683","3494.05"
"48.40000","4.03356","3507.46"
"48.60000","4.05069","3520.17"
"48.80000","4.06712","3532.1"
"49.00000","4.08355","3544.13"
"49.20000","4.10049","3555.22"
"49.40000","4.11702","3567.56"
"49.60000","4.13345","3580.07"
"49.80000","4.14998","3592.68"
"50.00000","4.16701","3604.43"
"50.20000","4.18354","3614.95"
"50.40000","4.19987","3625.38"
"50.60000","4.21721","3637.33"
"50.80000","4.23374","3648.25"
"51.00000","4.25027","3659.1"
"51.20000","4.26690","3670.74"
"51.40000","4.28383","3682.67"
"51.60000","4.30016","3693.27"
"51.80000","4.31689","3704.06"
"52.00000","4.33352","3714.58"
"52.20000","4.35045","3724.64"
"52.40000","4.36648","3734.06"
"52.60000","4.38372","3744.29"
"52.80000","4.40035","3753.54"
"53.00000","4.41647","3763.07"
"53.20000","4.43351","3772.08"
"53.40000","4.45044","3781.58"
"53.60000","4.46687","3789.78"
"53.80000","4.48350","3797.97"
"54.00000","4.50064","3805.63"
"54.20000","4.51717","3813.27"
"54.40000","4.53340","3819.3"
"54.60000","4.55033","3825.7"
"54.80000","4.56716","3832.29"
"55.00000","4.58349","3837.05"
"55.20000","4.60012","3840.74"
"55.40000","4.61726","3843.92"
"55.60000","4.63338","3844.88"
"55.80000","4.64991","3845.33"
"56.00000","4.66705","3843.8"
"56.20000","4.68378","3838.29"
"56.40000","4.70001","3829.08"
"56.60000","4.71704","3811.1"
"56.80000","4.73387","3766.84"
"56.91800","4.74405","3422.93"
"56.92600","4.74476","2693.18"
"56.93200","4.74547","2059.19"