File: Data_Processing/Tensile-Data/Sequence_55.csv
General : Start date,"11/5/2024 8:44 AM"
General : End date,"11/5/2024 8:45 AM"
Specimen notes : Specimen note 1,"Day 3, green, 215, batch 20, seq 55"
Test : Rate 1,"5.00000",mm/min

Time,Extension,Load
(s),(mm),(N)
"0.00000","0.00000","0.57414"
"0.20000","0.00877","7.99882"
"0.40000","0.03165","54.49552"
"0.60000","0.04929","84.48963"
"0.80000","0.06652","115.52"
"1.00000","0.08366","145.299"
"1.20000","0.09968","171.551"
"1.40000","0.11682","199.669"
"1.60000","0.13365","227.667"
"1.80000","0.14988","254.738"
"2.00000","0.16671","281.986"
"2.20000","0.18365","309.567"
"2.40000","0.20018","335.826"
"2.60000","0.21650","362.253"
"2.80000","0.23364","390.679"
"3.00000","0.25027","417.148"
"3.20000","0.26670","443.834"
"3.40000","0.28333","469.58"
"3.60000","0.30026","496.145"
"3.80000","0.31669","521.618"
"4.00000","0.33312","547.224"
"4.20000","0.35036","573.696"
"4.40000","0.36659","598.765"
"4.60000","0.38312","624.826"
"4.80000","0.40015","649.932"
"5.00000","0.41658","674.098"
"5.20000","0.43341","699.525"
"5.40000","0.45014","722.806"
"5.60000","0.46708","746.951"
"5.80000","0.48361","771.427"
"6.00000","0.50004","794.003"
"6.20000","0.51697","818.514"
"6.40000","0.53360","841.645"
"6.60000","0.54973","864.761"
"6.80000","0.56676","887.721"
"7.00000","0.58360","909.724"
"7.20000","0.59992","932.515"
"7.40000","0.61655","953.619"
"7.60000","0.63359","974.948"
"7.80000","0.64982","996.971"
"8.00000","0.66665","1018.77"
"8.20000","0.68338","1039.78"
"8.40000","0.70042","1060.03"
"8.60000","0.71674","1081.16"
"8.80000","0.73317","1102.09"
"9.00000","0.75031","1122.16"
"9.20000","0.76654","1141.87"
"9.40000","0.78317","1160.94"
"9.60000","0.80000","1182.02"
"9.80000","0.81673","1202.03"
"10.00000","0.83286","1220.83"
"10.20000","0.85009","1241.52"
"10.40000","0.86683","1260.52"
"10.60000","0.88346","1278.87"
"10.80000","0.89999","1298.85"
"11.00000","0.91682","1317.54"
"11.20000","0.93365","1334.63"
"11.40000","0.94978","1352.36"
"11.60000","0.96671","1370.65"
"11.80000","0.98365","1388.44"
"12.00000","0.99987","1405.35"
"12.20000","1.01650","1421.62"
"12.40000","1.03344","1438.64"
"12.60000","1.05007","1454.39"
"12.80000","1.06630","1470.65"
"13.00000","1.08343","1488.46"
"13.20000","1.10016","1505.27"
"13.40000","1.11659","1520.74"
"13.60000","1.13312","1537.79"
"13.80000","1.15066","1554.39"
"14.00000","1.16669","1570.2"
"14.20000","1.18332","1586.36"
"14.40000","1.20045","1604.4"
"14.60000","1.21698","1620.53"
"14.80000","1.23321","1635.18"
"15.00000","1.25024","1653.17"
"15.20000","1.26698","1670.19"
"15.40000","1.28310","1686.67"
"15.60000","1.29994","1703.47"
"15.80000","1.31687","1720.65"
"16.00000","1.33350","1737.14"
"16.20000","1.34963","1753.15"
"16.40000","1.36706","1770.02"
"16.60000","1.38370","1787.36"
"16.80000","1.39982","1802.84"
"17.00000","1.41686","1819.2"
"17.20000","1.43349","1835.79"
"17.40000","1.45002","1852.23"
"17.60000","1.46645","1868.02"
"17.80000","1.48368","1884.26"
"18.00000","1.50011","1900.26"
"18.20000","1.51634","1915.09"
"18.40000","1.53337","1931.93"
"18.60000","1.55031","1947.82"
"18.80000","1.56643","1963.65"
"19.00000","1.58337","1979.71"
"19.20000","1.60030","1996.7"
"19.40000","1.61673","2012.73"
"19.60000","1.63336","2029.19"
"19.80000","1.65019","2046.29"
"20.00000","1.66682","2061.44"
"20.20000","1.68315","2077.36"
"20.40000","1.69968","2092.43"
"20.60000","1.71682","2108.59"
"20.80000","1.73325","2124.68"
"21.00000","1.74988","2139.56"
"21.20000","1.76701","2156.85"
"21.40000","1.78344","2171.8"
"21.60000","1.79987","2187.21"
"21.80000","1.81691","2204.92"
"22.00000","1.83344","2220.26"
"22.20000","1.84997","2236"
"22.40000","1.86650","2251.94"
"22.60000","1.88353","2268.21"
"22.80000","1.89986","2283.85"
"23.00000","1.91689","2300.74"
"23.20000","1.93352","2316.89"
"23.40000","1.95026","2333.49"
"23.60000","1.96658","2347.7"
"23.80000","1.98352","2364.5"
"24.00000","2.00015","2379.87"
"24.20000","2.01648","2396.82"
"24.40000","2.03321","2411.43"
"24.60000","2.05004","2428.67"
"24.80000","2.06697","2444.7"
"25.00000","2.08310","2459.8"
"25.20000","2.10014","2476.79"
"25.40000","2.11697","2493.84"
"25.60000","2.13330","2509.34"
"25.80000","2.14993","2525.13"
"26.00000","2.16686","2541.16"
"26.20000","2.18339","2557.27"
"26.40000","2.19972","2572.95"
"26.60000","2.21675","2589.49"
"26.80000","2.23339","2605.74"
"27.00000","2.25012","2621.66"
"27.20000","2.26665","2637.48"
"27.40000","2.28378","2653.75"
"27.60000","2.30021","2670.43"
"27.80000","2.31644","2684.82"
"28.00000","2.33378","2702.11"
"28.20000","2.35021","2717.75"
"28.40000","2.36653","2732.9"
"28.60000","2.38357","2748.88"
"28.80000","2.40020","2764.42"
"29.00000","2.41633","2779.22"
"29.20000","2.43336","2794.63"
"29.40000","2.45019","2810.59"
"29.60000","2.46692","2826.12"
"29.80000","2.48305","2840.65"
"30.00000","2.50029","2857.38"
"30.20000","2.51712","2872.46"
"30.40000","2.53304","2888.31"
"30.60000","2.55018","2903.83"
"30.80000","2.56711","2918.37"
"31.00000","2.58334","2933.86"
"31.20000","2.59967","2947.84"
"31.40000","2.61670","2962.11"
"31.60000","2.63313","2977.43"
"31.80000","2.64976","2992.69"
"32.00000","2.66660","3008.07"
"32.20000","2.68353","3022.48"
"32.40000","2.69996","3038.83"
"32.60000","2.71669","3053.85"
"32.80000","2.73393","3067.73"
"33.00000","2.74995","3083.25"
"33.20000","2.76668","3097.93"
"33.40000","2.78352","3113.82"
"33.60000","2.80025","3128.42"
"33.80000","2.81648","3142.65"
"34.00000","2.83341","3157.57"
"34.20000","2.85034","3172.18"
"34.40000","2.86677","3187.19"
"34.60000","2.88310","3201.92"
"34.80000","2.90024","3216.62"
"35.00000","2.91687","3230.89"
"35.20000","2.93309","3245.58"
"35.40000","2.95023","3261.71"
"35.60000","2.96686","3275.98"
"35.80000","2.98329","3291.06"
"36.00000","3.00002","3306.16"
"36.20000","3.01685","3320.31"
"36.40000","3.03369","3333.92"
"36.60000","3.04991","3349.53"
"36.80000","3.06685","3365.06"
"37.00000","3.08358","3378.61"
"37.20000","3.09981","3393.09"
"37.40000","3.11654","3407.67"
"37.60000","3.13367","3423.07"
"37.80000","3.15000","3437.7"
"38.00000","3.16663","3451.07"
"38.20000","3.18367","3466.01"
"38.40000","3.20010","3479.83"
"38.60000","3.21653","3493.74"
"38.80000","3.23346","3509.37"
"39.00000","3.25039","3523.25"
"39.20000","3.26672","3537.37"
"39.40000","3.28325","3550.96"
"39.60000","3.30029","3565.61"
"39.80000","3.31682","3578.47"
"40.00000","3.33294","3591.77"
"40.20000","3.35018","3606.81"
"40.40000","3.36691","3618.89"
"40.60000","3.38324","3632.15"
"40.80000","3.40007","3647.04"
"41.00000","3.41690","3660.14"
"41.20000","3.43364","3674.37"
"41.40000","3.44986","3687.43"
"41.60000","3.46700","3702.28"
"41.80000","3.48363","3714.28"
"42.00000","3.49976","3726.99"
"42.20000","3.51679","3741.19"
"42.40000","3.53372","3753.02"
"42.60000","3.54955","3764.79"
"42.80000","3.56658","3778.85"
"43.00000","3.58352","3791.29"
"43.20000","3.60005","3803.11"
"43.40000","3.61658","3815.38"
"43.60000","3.63351","3826.75"
"43.80000","3.65054","3840.34"
"44.00000","3.66667","3850.57"
"44.20000","3.68340","3862.92"
"44.40000","3.70034","3875.41"
"44.60000","3.71666","3885.55"
"44.80000","3.73330","3898.73"
"45.00000","3.75023","3909.65"
"45.20000","3.76676","3920.37"
"45.40000","3.78309","3930.37"
"45.60000","3.80012","3941.24"
"45.80000","3.81665","3950.97"
"46.00000","3.83348","3960.22"
"46.20000","3.84991","3969.99"
"46.40000","3.86715","3981.38"
"46.60000","3.88348","3988.66"
"46.80000","3.89981","3996.83"
"47.00000","3.91694","4004.28"
"47.20000","3.93357","4011.81"
"47.40000","3.94990","4018.51"
"47.60000","3.96673","4023.86"
"47.80000","3.98357","4028.85"
"48.00000","3.99989","4033.61"
"48.20000","4.01663","4036.9"
"48.40000","4.03336","4040.04"
"48.60000","4.05029","4040.9"
"48.80000","4.06652","4039.38"
"49.00000","4.08355","4039.01"
"49.20000","4.10039","4034.87"
"49.40000","4.11661","4030.13"
"49.60000","4.13324","4022.52"
"49.80000","4.15028","4012.36"
"50.00000","4.16671","3998.28"
"50.20000","4.18314","3978.57"
"50.40000","4.20017","3950.83"
"50.60000","4.21680","3900.76"
"50.76600","4.23071","3530.07"
"50.77400","4.23142","2790.19"
"50.78000","4.23212","2138.89"