File: Data_Processing/Tensile-Data/Sequence_52.csv
General : Start date,"11/5/2024 8:38 AM"
General : End date,"11/5/2024 8:39 AM"
Specimen notes : Specimen note 1,"Day 3, green, 215, batch 20, seq 52"
Test : Rate 1,"5.00000",mm/min

Time,Extension,Load
(s),(mm),(N)
"0.00000","0.00000","0.01463"
"0.20000","0.00887","9.03771"
"0.40000","0.03195","54.05434"
"0.60000","0.04959","84.19261"
"0.80000","0.06622","112.351"
"1.00000","0.08356","139.475"
"1.20000","0.10019","167.609"
"1.40000","0.11682","195.992"
"1.60000","0.13345","221.545"
"1.80000","0.15038","249.053"
"2.00000","0.16712","275.691"
"2.20000","0.18344","301.901"
"2.40000","0.20028","330.189"
"2.60000","0.21691","357.894"
"2.80000","0.23354","384.706"
"3.00000","0.24997","410.856"
"3.20000","0.26700","438.035"
"3.40000","0.28323","463.403"
"3.60000","0.29996","489.24"
"3.80000","0.31679","514.88"
"4.00000","0.33343","541.615"
"4.20000","0.35006","567.74"
"4.40000","0.36699","593.873"
"4.60000","0.38372","619.191"
"4.80000","0.40025","644.136"
"5.00000","0.41698","668.768"
"5.20000","0.43372","693.739"
"5.40000","0.45045","717.769"
"5.60000","0.46637","740.714"
"5.80000","0.48361","766.706"
"6.00000","0.50034","791.199"
"6.20000","0.51657","814.007"
"6.40000","0.53350","837.281"
"6.60000","0.55003","860.321"
"6.80000","0.56676","882.886"
"7.00000","0.58339","905.757"
"7.20000","0.60043","928.839"
"7.40000","0.61706","950.568"
"7.60000","0.63329","972.895"
"7.80000","0.65002","995.567"
"8.00000","0.66715","1017.37"
"8.20000","0.68328","1037.68"
"8.40000","0.69991","1058.97"
"8.60000","0.71695","1080.73"
"8.80000","0.73337","1101.94"
"9.00000","0.74970","1121.33"
"9.20000","0.76684","1142.83"
"9.40000","0.78367","1164.03"
"9.60000","0.80000","1184.23"
"9.80000","0.81673","1204.39"
"10.00000","0.83366","1224.91"
"10.20000","0.85030","1244.28"
"10.40000","0.86652","1262.53"
"10.60000","0.88356","1282.2"
"10.80000","0.90049","1300.14"
"11.00000","0.91652","1316.12"
"11.20000","0.93345","1334.41"
"11.40000","0.95018","1351.1"
"11.60000","0.96681","1368.06"
"11.80000","0.98324","1385.01"
"12.00000","1.00028","1402.59"
"12.20000","1.01671","1420.65"
"12.40000","1.03324","1438.76"
"12.60000","1.05007","1456.37"
"12.80000","1.06710","1474.02"
"13.00000","1.08343","1491.92"
"13.20000","1.10036","1509.28"
"13.40000","1.11710","1526.13"
"13.60000","1.13342","1543.28"
"13.80000","1.15006","1559.32"
"14.00000","1.16699","1577.91"
"14.20000","1.18362","1594.25"
"14.40000","1.19985","1611.53"
"14.60000","1.21688","1629.24"
"14.80000","1.23361","1645.41"
"15.00000","1.24994","1663.07"
"15.20000","1.26657","1678.5"
"15.40000","1.28371","1695.28"
"15.60000","1.30044","1710.77"
"15.80000","1.31657","1725.83"
"16.00000","1.33390","1742.72"
"16.20000","1.35023","1758.93"
"16.40000","1.36696","1775.36"
"16.60000","1.38329","1791.47"
"16.80000","1.40033","1807.9"
"17.00000","1.41686","1823.8"
"17.20000","1.43318","1838.95"
"17.40000","1.45022","1856.11"
"17.60000","1.46685","1870.96"
"17.80000","1.48318","1885.82"
"18.00000","1.50031","1903.27"
"18.20000","1.51694","1919.21"
"18.40000","1.53347","1935.39"
"18.60000","1.55011","1951.09"
"18.80000","1.56704","1967.31"
"19.00000","1.58357","1983.26"
"19.20000","1.59970","1997.66"
"19.40000","1.61663","2013.24"
"19.60000","1.63356","2029.01"
"19.80000","1.64969","2045.29"
"20.00000","1.66682","2062.67"
"20.20000","1.68366","2077.35"
"20.40000","1.70019","2093.81"
"20.60000","1.71652","2109.79"
"20.80000","1.73365","2125.09"
"21.00000","1.75028","2140.56"
"21.20000","1.76671","2155.72"
"21.40000","1.78344","2171.52"
"21.60000","1.80038","2187.64"
"21.80000","1.81660","2203.73"
"22.00000","1.83334","2219.62"
"22.20000","1.85057","2234.76"
"22.40000","1.86690","2250.95"
"22.60000","1.88323","2266.05"
"22.80000","1.90016","2283.27"
"23.00000","1.91699","2298.69"
"23.20000","1.93312","2313.25"
"23.40000","1.94995","2329.84"
"23.60000","1.96699","2347.22"
"23.80000","1.98362","2361.97"
"24.00000","1.99995","2376.85"
"24.20000","2.01708","2393.7"
"24.40000","2.03381","2410.32"
"24.60000","2.04984","2426.11"
"24.80000","2.06687","2442.37"
"25.00000","2.08361","2457.86"
"25.20000","2.10004","2473.49"
"25.40000","2.11667","2489.73"
"25.60000","2.13350","2504.23"
"25.80000","2.15023","2520.94"
"26.00000","2.16676","2536.34"
"26.20000","2.18369","2552.64"
"26.40000","2.20043","2567.1"
"26.60000","2.21675","2582.59"
"26.80000","2.23328","2597.72"
"27.00000","2.25052","2614.5"
"27.20000","2.26675","2629.12"
"27.40000","2.28338","2644.99"
"27.60000","2.30031","2661.34"
"27.80000","2.31684","2677.65"
"28.00000","2.33307","2691.32"
"28.20000","2.35021","2707.55"
"28.40000","2.36694","2722.8"
"28.60000","2.38347","2737.79"
"28.80000","2.39990","2752.98"
"29.00000","2.41693","2769.04"
"29.20000","2.43376","2784.87"
"29.40000","2.44979","2798.96"
"29.60000","2.46723","2815.58"
"29.80000","2.48376","2830.82"
"30.00000","2.49998","2844.06"
"30.20000","2.51672","2859.63"
"30.40000","2.53325","2875.6"
"30.60000","2.55008","2891.02"
"30.80000","2.56631","2905.36"
"31.00000","2.58344","2921.67"
"31.20000","2.60027","2936.75"
"31.40000","2.61670","2951.19"
"31.60000","2.63344","2966.69"
"31.80000","2.65047","2982.28"
"32.00000","2.66670","2996.57"
"32.20000","2.68343","3011.9"
"32.40000","2.70036","3026.55"
"32.60000","2.71699","3041"
"32.80000","2.73312","3055.59"
"33.00000","2.75036","3072.68"
"33.20000","2.76719","3086.46"
"33.40000","2.78332","3101.86"
"33.60000","2.80005","3116.88"
"33.80000","2.81698","3132.47"
"34.00000","2.83351","3147.21"
"34.20000","2.84964","3160.43"
"34.40000","2.86707","3176.77"
"34.60000","2.88361","3191.82"
"34.80000","2.89993","3206.04"
"35.00000","2.91687","3220.74"
"35.20000","2.93380","3236.36"
"35.40000","2.95033","3250.5"
"35.60000","2.96656","3263.86"
"35.80000","2.98379","3278.64"
"36.00000","3.00022","3293.44"
"36.20000","3.01625","3307.62"
"36.40000","3.03338","3323.14"
"36.60000","3.05042","3337.35"
"36.80000","3.06675","3349.96"
"37.00000","3.08358","3364.87"
"37.20000","3.10041","3380.15"
"37.40000","3.11674","3393.19"
"37.60000","3.13337","3406.95"
"37.80000","3.15041","3421.53"
"38.00000","3.16704","3435.45"
"38.20000","3.18316","3449.11"
"38.40000","3.20010","3462.84"
"38.60000","3.21713","3475.67"
"38.80000","3.23326","3490.1"
"39.00000","3.24999","3505.2"
"39.20000","3.26712","3516.99"
"39.40000","3.28355","3530.5"
"39.60000","3.29978","3543.51"
"39.80000","3.31702","3556.96"
"40.00000","3.33345","3570.76"
"40.20000","3.35028","3583.51"
"40.40000","3.36661","3595.73"
"40.60000","3.38374","3610.23"
"40.80000","3.40027","3622.33"
"41.00000","3.41670","3634.56"
"41.20000","3.43364","3647.35"
"41.40000","3.45017","3659.26"
"41.60000","3.46639","3671.53"
"41.80000","3.48353","3684.06"
"42.00000","3.50036","3696.91"
"42.20000","3.51669","3709.28"
"42.40000","3.53352","3720.51"
"42.60000","3.55046","3732.3"
"42.80000","3.56719","3742.98"
"43.00000","3.58321","3753.91"
"43.20000","3.60025","3765.59"
"43.40000","3.61708","3776.32"
"43.60000","3.63321","3787.23"
"43.80000","3.65014","3797.73"
"44.00000","3.66697","3808.49"
"44.20000","3.68370","3817.8"
"44.40000","3.69993","3826.69"
"44.60000","3.71666","3837.09"
"44.80000","3.73360","3845.51"
"45.00000","3.75013","3855.17"
"45.20000","3.76676","3862.9"
"45.40000","3.78379","3871.51"
"45.60000","3.80002","3878.15"
"45.80000","3.81655","3884.9"
"46.00000","3.83379","3892.24"
"46.20000","3.85032","3896.89"
"46.40000","3.86665","3901.96"
"46.60000","3.88368","3906.82"
"46.80000","3.90021","3909.6"
"47.00000","3.91644","3911.53"
"47.20000","3.93347","3913.63"
"47.40000","3.95030","3913.06"
"47.60000","3.96693","3909.79"
"47.80000","3.98316","3903.57"
"48.00000","4.00040","3894.72"
"48.20000","4.01713","3876.3"
"48.40000","4.03316","3838.76"
"48.57600","4.04828","3422.55"
"48.58400","4.04908","2671.55"
"48.58800","4.04959","2241.74"