File: Data_Processing/Tensile-Data/Sequence_37.csv
General : Start date,"10/29/2024 10:38 AM"
General : End date,"10/29/2024 10:39 AM"
Specimen notes : Specimen note 1,"Day 2, red, 215, batch 7, seq 37"
Test : Rate 1,"5.00000",mm/min

Time,Extension,Load
(s),(mm),(N)
"0.00000","0.00000","-0.34632"
"0.20000","0.01068","12.56852"
"0.40000","0.03286","56.73894"
"0.60000","0.04969","87.27682"
"0.80000","0.06693","115.824"
"1.00000","0.08406","145.256"
"1.20000","0.10009","173.729"
"1.40000","0.11692","201.724"
"1.60000","0.13385","231.246"
"1.80000","0.15038","259.654"
"2.00000","0.16661","285.534"
"2.20000","0.18375","314.446"
"2.40000","0.20038","342.591"
"2.60000","0.21671","369.858"
"2.80000","0.23354","397.526"
"3.00000","0.25027","426.576"
"3.20000","0.26710","453.764"
"3.40000","0.28333","479.255"
"3.60000","0.30067","508.017"
"3.80000","0.31710","535.005"
"4.00000","0.33343","561.5"
"4.20000","0.35036","587.64"
"4.40000","0.36699","615.066"
"4.60000","0.38342","640.749"
"4.80000","0.39995","666.539"
"5.00000","0.41708","692.279"
"5.20000","0.43351","717.394"
"5.40000","0.44984","741.891"
"5.60000","0.46698","768.442"
"5.80000","0.48361","792.892"
"6.00000","0.50024","818.187"
"6.20000","0.51707","844.143"
"6.40000","0.53400","868.834"
"6.60000","0.55033","892.133"
"6.80000","0.56676","915.794"
"7.00000","0.58349","940.545"
"7.20000","0.60043","964.193"
"7.40000","0.61655","987.416"
"7.60000","0.63359","1009.85"
"7.80000","0.65032","1033.5"
"8.00000","0.66645","1055.94"
"8.20000","0.68338","1078.92"
"8.40000","0.70031","1102.14"
"8.60000","0.71684","1125.15"
"8.80000","0.73358","1146.75"
"9.00000","0.75061","1170.03"
"9.20000","0.76714","1191.7"
"9.40000","0.78347","1212.43"
"9.60000","0.80030","1235.2"
"9.80000","0.81723","1256.54"
"10.00000","0.83356","1276.51"
"10.20000","0.84989","1296.17"
"10.40000","0.86723","1317.67"
"10.60000","0.88366","1336.93"
"10.80000","0.89989","1356.53"
"11.00000","0.91692","1377.09"
"11.20000","0.93365","1395.98"
"11.40000","0.95008","1415.12"
"11.60000","0.96671","1434.24"
"11.80000","0.98365","1454.29"
"12.00000","1.00058","1474.75"
"12.20000","1.01660","1492.18"
"12.40000","1.03394","1512.17"
"12.60000","1.05047","1530.54"
"12.80000","1.06660","1549.1"
"13.00000","1.08363","1567.6"
"13.20000","1.10036","1585.67"
"13.40000","1.11669","1604.38"
"13.60000","1.13322","1622.15"
"13.80000","1.15026","1642.08"
"14.00000","1.16689","1661.42"
"14.20000","1.18352","1679.65"
"14.40000","1.20025","1697.76"
"14.60000","1.21728","1715.85"
"14.80000","1.23341","1733.55"
"15.00000","1.24984","1750.91"
"15.20000","1.26738","1769.98"
"15.40000","1.28361","1788.09"
"15.60000","1.30014","1805.76"
"15.80000","1.31697","1824.73"
"16.00000","1.33390","1844.08"
"16.20000","1.34983","1860.45"
"16.40000","1.36676","1878.83"
"16.60000","1.38359","1896.74"
"16.80000","1.40043","1915.01"
"17.00000","1.41655","1931.06"
"17.20000","1.43379","1950.37"
"17.40000","1.45042","1967.83"
"17.60000","1.46665","1985.28"
"17.80000","1.48368","2002.85"
"18.00000","1.50041","2021"
"18.20000","1.51684","2038.03"
"18.40000","1.53347","2055.61"
"18.60000","1.55041","2072.58"
"18.80000","1.56684","2089.63"
"19.00000","1.58327","2107.32"
"19.20000","1.60020","2125.43"
"19.40000","1.61723","2141.63"
"19.60000","1.63336","2158.01"
"19.80000","1.65040","2175.78"
"20.00000","1.66713","2192.45"
"20.20000","1.68335","2208.88"
"20.40000","1.69999","2225.91"
"20.60000","1.71732","2243.39"
"20.80000","1.73375","2260.12"
"21.00000","1.75018","2277.78"
"21.20000","1.76671","2293.36"
"21.40000","1.78395","2311.17"
"21.60000","1.80007","2328.26"
"21.80000","1.81660","2345.1"
"22.00000","1.83384","2362.21"
"22.20000","1.85027","2378"
"22.40000","1.86640","2394.72"
"22.60000","1.88383","2412.71"
"22.80000","1.89996","2429.11"
"23.00000","1.91689","2446.99"
"23.20000","1.93383","2463.34"
"23.40000","1.95056","2480.8"
"23.60000","1.96679","2497.52"
"23.80000","1.98322","2513.81"
"24.00000","2.00035","2531.14"
"24.20000","2.01698","2547.67"
"24.40000","2.03311","2562.52"
"24.60000","2.05034","2580.35"
"24.80000","2.06697","2596.85"
"25.00000","2.08330","2612.7"
"25.20000","2.10014","2629.33"
"25.40000","2.11717","2646.57"
"25.60000","2.13390","2663.53"
"25.80000","2.15013","2678.35"
"26.00000","2.16696","2695.63"
"26.20000","2.18379","2711.3"
"26.40000","2.20012","2728.26"
"26.60000","2.21686","2744.56"
"26.80000","2.23349","2760.11"
"27.00000","2.25002","2777.48"
"27.20000","2.26655","2793.2"
"27.40000","2.28398","2809.72"
"27.60000","2.30021","2826.33"
"27.80000","2.31694","2841.64"
"28.00000","2.33357","2857.61"
"28.20000","2.35041","2874.27"
"28.40000","2.36694","2890.39"
"28.60000","2.38327","2905.25"
"28.80000","2.40020","2921.61"
"29.00000","2.41703","2937.58"
"29.20000","2.43316","2952.58"
"29.40000","2.45039","2969.56"
"29.60000","2.46713","2985.23"
"29.80000","2.48335","3000.22"
"30.00000","2.50029","3016.24"
"30.20000","2.51692","3032.08"
"30.40000","2.53375","3048.25"
"30.60000","2.55018","3063.65"
"30.80000","2.56691","3078.83"
"31.00000","2.58405","3095.16"
"31.20000","2.59987","3109.94"
"31.40000","2.61711","3125.41"
"31.60000","2.63394","3141.15"
"31.80000","2.65027","3156.58"
"32.00000","2.66670","3171.63"
"32.20000","2.68403","3187.65"
"32.40000","2.70016","3203.23"
"32.60000","2.71659","3218.27"
"32.80000","2.73362","3234.14"
"33.00000","2.75036","3249.99"
"33.20000","2.76658","3264.47"
"33.40000","2.78342","3280.81"
"33.60000","2.80055","3297.16"
"33.80000","2.81688","3310.66"
"34.00000","2.83331","3326.65"
"34.20000","2.85054","3342.78"
"34.40000","2.86707","3356.34"
"34.60000","2.88340","3370.71"
"34.80000","2.90044","3386.03"
"35.00000","2.91717","3402.15"
"35.20000","2.93340","3416.3"
"35.40000","2.94993","3430.8"
"35.60000","2.96656","3446.7"
"35.80000","2.98359","3461.84"
"36.00000","2.99982","3475.98"
"36.20000","3.01726","3493.18"
"36.40000","3.03379","3507.12"
"36.60000","3.05022","3521.94"
"36.80000","3.06685","3535.05"
"37.00000","3.08368","3551.5"
"37.20000","3.10031","3565.84"
"37.40000","3.11714","3580.66"
"37.60000","3.13398","3595.54"
"37.80000","3.15031","3610.1"
"38.00000","3.16684","3624.01"
"38.20000","3.18337","3639.02"
"38.40000","3.20040","3654.12"
"38.60000","3.21673","3668.21"
"38.80000","3.23336","3682.2"
"39.00000","3.25059","3697.33"
"39.20000","3.26672","3711.94"
"39.40000","3.28345","3725.77"
"39.60000","3.30039","3741.09"
"39.80000","3.31712","3755.32"
"40.00000","3.33335","3768.96"
"40.20000","3.35008","3783.13"
"40.40000","3.36711","3797.68"
"40.60000","3.38374","3811.46"
"40.80000","3.39987","3824.46"
"41.00000","3.41711","3839.91"
"41.20000","3.43374","3853.31"
"41.40000","3.44986","3866.33"
"41.60000","3.46710","3880.34"
"41.80000","3.48363","3894.44"
"42.00000","3.50016","3907.68"
"42.20000","3.51679","3920.72"
"42.40000","3.53362","3934.17"
"42.60000","3.55056","3947.9"
"42.80000","3.56628","3959.93"
"43.00000","3.58382","3974.41"
"43.20000","3.60075","3987.39"
"43.40000","3.61668","3998.53"
"43.60000","3.63361","4012.73"
"43.80000","3.65064","4025.57"
"44.00000","3.66687","4037.45"
"44.20000","3.68340","4049.73"
"44.40000","3.70054","4062.76"
"44.60000","3.71717","4075.28"
"44.80000","3.73330","4086.03"
"45.00000","3.75023","4099.12"
"45.20000","3.76726","4111.8"
"45.40000","3.78349","4121.54"
"45.60000","3.80002","4131.75"
"45.80000","3.81706","4144.01"
"46.00000","3.83338","4154.12"
"46.20000","3.84971","4164.33"
"46.40000","3.86715","4175.48"
"46.60000","3.88358","4184.8"
"46.80000","3.90011","4194.95"
"47.00000","3.91684","4203.34"
"47.20000","3.93398","4213.11"
"47.40000","3.95030","4220.83"
"47.60000","3.96683","4229.5"
"47.80000","3.98367","4236.53"
"48.00000","4.00040","4243.95"
"48.20000","4.01673","4248.42"
"48.40000","4.03366","4253.66"
"48.60000","4.05080","4258.6"
"48.80000","4.06662","4259.72"
"49.00000","4.08335","4260.37"
"49.20000","4.10039","4261.14"
"49.40000","4.11692","4260.06"
"49.60000","4.13324","4256.42"
"49.80000","4.15028","4252.71"
"50.00000","4.16721","4246.59"
"50.20000","4.18334","4237.84"
"50.40000","4.20007","4228.33"
"50.60000","4.21721","4219.75"
"50.80000","4.23374","4208.29"
"51.00000","4.25006","4193.71"
"51.20000","4.26710","4181.72"
"51.40000","4.28333","4166.67"
"51.60000","4.30006","4151.83"
"51.80000","4.31699","4135.55"
"52.00000","4.33372","4119.06"
"52.20000","4.35025","4101.07"
"52.40000","4.36658","4081.02"
"52.60000","4.38392","4062.09"
"52.80000","4.40055","4040.51"
"53.00000","4.41657","4016.77"
"53.20000","4.43381","3993.06"
"53.40000","4.45064","3966.71"
"53.60000","4.46687","3933.74"
"53.80000","4.48350","3890.9"
"53.99600","4.50023","3484.64"
"54.00400","4.50094","2712.29"
"54.00800","4.50144","2272.44"