File: Data_Processing/Tensile-Data/Sequence_1.csv
General : Start date,"10/22/2024 9:06 AM"
General : End date,"10/22/2024 9:06 AM"
Specimen notes : Specimen note 1,"black, 200, batch 5, seq 1"
Test : Rate 1,"5.00000",mm/min

Time,Extension,Load
(s),(mm),(N)
"0.00000","0.00010","73.39417"
"0.20000","0.00857","80.01574"
"0.40000","0.03195","124.511"
"0.60000","0.04979","158.176"
"0.80000","0.06693","189.48"
"1.00000","0.08315","218.733"
"1.20000","0.10039","249.946"
"1.40000","0.11682","267.571"
"1.60000","0.13315","294.557"
"1.80000","0.15048","324.701"
"2.00000","0.16681","353.442"
"2.20000","0.18365","382.089"
"2.40000","0.20028","410.709"
"2.60000","0.21701","440.598"
"2.80000","0.23384","469.204"
"3.00000","0.24987","497.394"
"3.20000","0.26710","526.47"
"3.40000","0.28383","556.227"
"3.60000","0.30006","584.903"
"3.80000","0.31669","614.648"
"4.00000","0.33383","644.507"
"4.20000","0.35016","674.351"
"4.40000","0.36669","701.113"
"4.60000","0.38382","730.475"
"4.80000","0.39995","758.933"
"5.00000","0.41678","787.229"
"5.20000","0.43321","815.445"
"5.40000","0.45055","845.222"
"5.60000","0.46667","872.199"
"5.80000","0.48331","901.921"
"6.00000","0.50034","929.454"
"6.20000","0.51697","958.185"
"6.40000","0.53320","986.056"
"6.60000","0.55033","1014.89"
"6.80000","0.56727","1043.72"
"7.00000","0.58309","1070.19"
"7.20000","0.60013","1097.16"
"7.40000","0.61666","1125.84"
"7.60000","0.63369","1154.38"
"7.80000","0.64992","1180.46"
"8.00000","0.66695","1208.34"
"8.20000","0.68368","1236.96"
"8.40000","0.69971","1263.59"
"8.60000","0.71674","1291.16"
"8.80000","0.73378","1318.66"
"9.00000","0.75011","1345.34"
"9.20000","0.76654","1371.73"
"9.40000","0.78367","1399.44"
"9.60000","0.80020","1426.27"
"9.80000","0.81663","1452.1"
"10.00000","0.83356","1480.82"
"10.20000","0.85050","1507.48"
"10.40000","0.86672","1533.18"
"10.60000","0.88336","1557.56"
"10.80000","0.90049","1584.83"
"11.00000","0.91662","1610.68"
"11.20000","0.93315","1635.95"
"11.40000","0.95028","1663.38"
"11.60000","0.96691","1689.32"
"11.80000","0.98324","1713.85"
"12.00000","1.00007","1739.3"
"12.20000","1.01701","1766.39"
"12.40000","1.03364","1791.37"
"12.60000","1.04997","1816.23"
"12.80000","1.06700","1841.84"
"13.00000","1.08353","1867.22"
"13.20000","1.09986","1892.44"
"13.40000","1.11710","1917.29"
"13.60000","1.13353","1942.69"
"13.80000","1.15016","1966.93"
"14.00000","1.16669","1991.17"
"14.20000","1.18362","2015.82"
"14.40000","1.20005","2040.9"
"14.60000","1.21648","2064.24"
"14.80000","1.23351","2089.86"
"15.00000","1.25034","2114.49"
"15.20000","1.26657","2138.19"
"15.40000","1.28341","2162.93"
"15.60000","1.30034","2187.43"
"15.80000","1.31667","2211.27"
"16.00000","1.33330","2234.4"
"16.20000","1.35043","2259.11"
"16.40000","1.36706","2282.58"
"16.60000","1.38329","2306.06"
"16.80000","1.40023","2329.74"
"17.00000","1.41706","2353.95"
"17.20000","1.43349","2375.87"
"17.40000","1.44992","2399.06"
"17.60000","1.46685","2423.41"
"17.80000","1.48358","2445.99"
"18.00000","1.49971","2468.11"
"18.20000","1.51694","2492.52"
"18.40000","1.53327","2513.55"
"18.60000","1.55031","2537.41"
"18.80000","1.56684","2558.86"
"19.00000","1.58367","2582.64"
"19.20000","1.60010","2605.33"
"19.40000","1.61663","2626.93"
"19.60000","1.63366","2650.04"
"19.80000","1.65029","2671.57"
"20.00000","1.66642","2694.31"
"20.20000","1.68356","2715.6"
"20.40000","1.70029","2737.85"
"20.60000","1.71641","2759.13"
"20.80000","1.73335","2780.28"
"21.00000","1.75038","2803.65"
"21.20000","1.76691","2824.52"
"21.40000","1.78334","2844.84"
"21.60000","1.80017","2866.31"
"21.80000","1.81731","2888.81"
"22.00000","1.83303","2909.51"
"22.20000","1.85027","2930.92"
"22.40000","1.86690","2952"
"22.60000","1.88333","2972.58"
"22.80000","1.89986","2992.9"
"23.00000","1.91709","3013.63"
"23.20000","1.93332","3032.83"
"23.40000","1.94985","3054.07"
"23.60000","1.96689","3074.93"
"23.80000","1.98372","3095.06"
"24.00000","1.99995","3113.9"
"24.20000","2.01678","3134.65"
"24.40000","2.03381","3155.87"
"24.60000","2.05034","3175.91"
"24.80000","2.06647","3193.8"
"25.00000","2.08381","3214.1"
"25.20000","2.10024","3233.13"
"25.40000","2.11657","3251.72"
"25.60000","2.13340","3270.25"
"25.80000","2.15033","3290.68"
"26.00000","2.16666","3308.13"
"26.20000","2.18329","3325.96"
"26.40000","2.20002","3344.83"
"26.60000","2.21706","3363.5"
"26.80000","2.23308","3381.02"
"27.00000","2.25022","3399.91"
"27.20000","2.26675","3418.17"
"27.40000","2.28318","3435.19"
"27.60000","2.30001","3453.71"
"27.80000","2.31704","3471.5"
"28.00000","2.33357","3487.65"
"28.20000","2.35021","3504.88"
"28.40000","2.36714","3520.9"
"28.60000","2.38367","3537.79"
"28.80000","2.39990","3553.99"
"29.00000","2.41663","3569.73"
"29.20000","2.43376","3587.43"
"29.40000","2.45029","3603.06"
"29.60000","2.46662","3619"
"29.80000","2.48396","3635.59"
"30.00000","2.50029","3650.8"
"30.20000","2.51641","3665.27"
"30.40000","2.53345","3672.52"
"30.60000","2.55038","3688.5"
"30.80000","2.56671","3702.59"
"31.00000","2.58334","3718.03"
"31.20000","2.60017","3732.39"
"31.40000","2.61711","3747.2"
"31.60000","2.63303","3759.75"
"31.80000","2.65027","3774.62"
"32.00000","2.66710","3788.62"
"32.20000","2.68323","3802.06"
"32.40000","2.70016","3816.45"
"32.60000","2.71709","3829.43"
"32.80000","2.73352","3841.46"
"33.00000","2.75005","3853.95"
"33.20000","2.76689","3865.9"
"33.40000","2.78352","3877.68"
"33.60000","2.79985","3889"
"33.80000","2.81668","3900.53"
"34.00000","2.83391","3913.04"
"34.20000","2.84974","3922.55"
"34.40000","2.86657","3932.93"
"34.60000","2.88381","3944"
"34.80000","2.89993","3953.44"
"35.00000","2.91677","3962.19"
"35.20000","2.93350","3971.06"
"35.40000","2.95063","3979.13"
"35.60000","2.96666","3984.42"
"35.80000","2.98339","3989.42"
"36.00000","3.00022","3994.06"
"36.20000","3.01685","3992.68"
"36.40000","3.03308","3992.11"
"36.60000","3.05052","3991.98"
"36.80000","3.06695","3987.81"
"37.00000","3.08308","3968.91"
"37.20000","3.10051","3943"
"37.40000","3.11674","3913.84"
"37.58400","3.13226","3558.03"
"37.59200","3.13307","2831.11"
"37.59800","3.13367","2184.92"