File: Data_Processing/Tensile-Data/Sequence_31.csv
General : Start date,"10/29/2024 10:22 AM"
General : End date,"10/29/2024 10:23 AM"
Specimen notes : Specimen note 1,"Day 2, black, 230, batch 2, seq 31"
Test : Rate 1,"5.00000",mm/min

Time,Extension,Load
(s),(mm),(N)
"0.00000","0.00000","0.71787"
"0.20000","0.00968","11.22807"
"0.40000","0.03205","54.92603"
"0.60000","0.04969","83.62576"
"0.80000","0.06713","111.446"
"1.00000","0.08366","138.668"
"1.20000","0.10009","164.766"
"1.40000","0.11722","191.968"
"1.60000","0.13365","219.487"
"1.80000","0.14988","245.989"
"2.00000","0.16691","275.166"
"2.20000","0.18375","301.768"
"2.40000","0.19997","329.176"
"2.60000","0.21661","355.575"
"2.80000","0.23374","384.438"
"3.00000","0.25027","410.803"
"3.20000","0.26670","437.5"
"3.40000","0.28383","464.485"
"3.60000","0.30067","490.974"
"3.80000","0.31659","516.687"
"4.00000","0.33343","542.447"
"4.20000","0.35026","569.902"
"4.40000","0.36679","595.593"
"4.60000","0.38322","620.205"
"4.80000","0.40025","646.578"
"5.00000","0.41688","670.947"
"5.20000","0.43291","695.29"
"5.40000","0.45035","721.201"
"5.60000","0.46647","745.544"
"5.80000","0.48361","770.754"
"6.00000","0.50034","794.262"
"6.20000","0.51727","818.828"
"6.40000","0.53360","841.608"
"6.60000","0.55013","864.246"
"6.80000","0.56696","885.867"
"7.00000","0.58370","908.456"
"7.20000","0.60002","931.634"
"7.40000","0.61666","954.028"
"7.60000","0.63379","977.352"
"7.80000","0.64992","998.755"
"8.00000","0.66655","1019.82"
"8.20000","0.68368","1042.16"
"8.40000","0.70001","1062.25"
"8.60000","0.71664","1082.83"
"8.80000","0.73348","1103.43"
"9.00000","0.75061","1125.58"
"9.20000","0.76674","1144.11"
"9.40000","0.78337","1164.09"
"9.60000","0.80030","1183.76"
"9.80000","0.81703","1204.92"
"10.00000","0.83316","1224.15"
"10.20000","0.85040","1244.42"
"10.40000","0.86672","1262.65"
"10.60000","0.88315","1281.04"
"10.80000","0.90019","1300.31"
"11.00000","0.91672","1319.45"
"11.20000","0.93335","1336.71"
"11.40000","0.95008","1354.92"
"11.60000","0.96701","1373.42"
"11.80000","0.98375","1389.6"
"12.00000","0.99977","1405.91"
"12.20000","1.01711","1421.6"
"12.40000","1.03384","1438.63"
"12.60000","1.04997","1454.87"
"12.80000","1.06660","1470.97"
"13.00000","1.08373","1489.22"
"13.20000","1.10036","1505.72"
"13.40000","1.11659","1519.91"
"13.60000","1.13332","1538.4"
"13.80000","1.15056","1555.14"
"14.00000","1.16638","1570.39"
"14.20000","1.18332","1587.08"
"14.40000","1.20055","1603.92"
"14.60000","1.21688","1620.91"
"14.80000","1.23331","1637.15"
"15.00000","1.25055","1654.1"
"15.20000","1.26677","1670.22"
"15.40000","1.28341","1686.96"
"15.60000","1.30024","1703.04"
"15.80000","1.31697","1721.23"
"16.00000","1.33310","1735.7"
"16.20000","1.34973","1753.24"
"16.40000","1.36716","1771.7"
"16.60000","1.38359","1788.21"
"16.80000","1.39982","1804.1"
"17.00000","1.41736","1822.18"
"17.20000","1.43369","1838.3"
"17.40000","1.44992","1854.64"
"17.60000","1.46685","1870.76"
"17.80000","1.48378","1887.86"
"18.00000","1.50021","1904.92"
"18.20000","1.51674","1921.14"
"18.40000","1.53358","1937.43"
"18.60000","1.55041","1954.62"
"18.80000","1.56643","1970.45"
"19.00000","1.58357","1987.24"
"19.20000","1.60040","2004.32"
"19.40000","1.61663","2020.08"
"19.60000","1.63346","2035.9"
"19.80000","1.65029","2051.88"
"20.00000","1.66682","2067.07"
"20.20000","1.68335","2083.46"
"20.40000","1.70059","2100.63"
"20.60000","1.71702","2115.7"
"20.80000","1.73315","2130.86"
"21.00000","1.75008","2147.14"
"21.20000","1.76721","2162.93"
"21.40000","1.78344","2178.62"
"21.60000","1.79977","2194.64"
"21.80000","1.81701","2212.01"
"22.00000","1.83354","2227.83"
"22.20000","1.84987","2242.64"
"22.40000","1.86700","2260.37"
"22.60000","1.88383","2276.57"
"22.80000","1.90016","2291.58"
"23.00000","1.91689","2307.3"
"23.20000","1.93352","2323.62"
"23.40000","1.95056","2338.78"
"23.60000","1.96638","2353.38"
"23.80000","1.98372","2370.66"
"24.00000","2.00025","2386.35"
"24.20000","2.01638","2400.63"
"24.40000","2.03341","2417.7"
"24.60000","2.05034","2433.67"
"24.80000","2.06687","2449.92"
"25.00000","2.08371","2466.21"
"25.20000","2.10044","2482.31"
"25.40000","2.11697","2497.17"
"25.60000","2.13340","2513.41"
"25.80000","2.15023","2530.27"
"26.00000","2.16716","2546.21"
"26.20000","2.18329","2560"
"26.40000","2.19992","2576.17"
"26.60000","2.21706","2591.92"
"26.80000","2.23328","2606.97"
"27.00000","2.24981","2623.18"
"27.20000","2.26695","2640.32"
"27.40000","2.28368","2654.91"
"27.60000","2.30001","2669.68"
"27.80000","2.31694","2686.97"
"28.00000","2.33388","2702.92"
"28.20000","2.35041","2718.22"
"28.40000","2.36663","2732.74"
"28.60000","2.38377","2748.93"
"28.80000","2.40020","2763.9"
"29.00000","2.41663","2780.19"
"29.20000","2.43376","2796.48"
"29.40000","2.45009","2811.23"
"29.60000","2.46662","2826.92"
"29.80000","2.48325","2841.78"
"30.00000","2.50039","2857.84"
"30.20000","2.51682","2872.97"
"30.40000","2.53325","2888.1"
"30.60000","2.55028","2904.89"
"30.80000","2.56711","2920.09"
"31.00000","2.58314","2934.7"
"31.20000","2.60027","2950.95"
"31.40000","2.61731","2965.1"
"31.60000","2.63333","2980.62"
"31.80000","2.65017","2995.93"
"32.00000","2.66710","3012.33"
"32.20000","2.68363","3026.71"
"32.40000","2.69976","3039.85"
"32.60000","2.71659","3056.95"
"32.80000","2.73342","3071.55"
"33.00000","2.74985","3085.58"
"33.20000","2.76668","3101.14"
"33.40000","2.78372","3116.33"
"33.60000","2.80035","3131.17"
"33.80000","2.81658","3145.24"
"34.00000","2.83381","3160.98"
"34.20000","2.85014","3176.09"
"34.40000","2.86677","3190.64"
"34.60000","2.88361","3205.83"
"34.80000","2.90044","3221.3"
"35.00000","2.91677","3235.74"
"35.20000","2.93330","3250.56"
"35.40000","2.95023","3266.13"
"35.60000","2.96696","3280.83"
"35.80000","2.98309","3295.19"
"36.00000","3.00053","3310.48"
"36.20000","3.01706","3325.19"
"36.40000","3.03328","3338.35"
"36.60000","3.05012","3352.59"
"36.80000","3.06695","3368.47"
"37.00000","3.08358","3382.73"
"37.20000","3.10011","3396.67"
"37.40000","3.11664","3410.36"
"37.60000","3.13388","3426.35"
"37.80000","3.14990","3439.35"
"38.00000","3.16684","3454.7"
"38.20000","3.18357","3469.24"
"38.40000","3.20020","3483.63"
"38.60000","3.21653","3497.81"
"38.80000","3.23396","3513.01"
"39.00000","3.25009","3526.57"
"39.20000","3.26672","3540.05"
"39.40000","3.28365","3554.47"
"39.60000","3.30029","3568.23"
"39.80000","3.31661","3581.09"
"40.00000","3.33335","3595.19"
"40.20000","3.35048","3609.31"
"40.40000","3.36681","3623.27"
"40.60000","3.38314","3636.13"
"40.80000","3.40058","3650.31"
"41.00000","3.41701","3663.57"
"41.20000","3.43333","3676.59"
"41.40000","3.45017","3690.69"
"41.60000","3.46700","3705.78"
"41.80000","3.48373","3718.07"
"42.00000","3.50006","3730.9"
"42.20000","3.51679","3744.1"
"42.40000","3.53383","3756.52"
"42.60000","3.54975","3768.2"
"42.80000","3.56699","3781.26"
"43.00000","3.58362","3793.42"
"43.20000","3.60005","3806.26"
"43.40000","3.61668","3817.07"
"43.60000","3.63381","3830.19"
"43.80000","3.64984","3841.29"
"44.00000","3.66677","3854.08"
"44.20000","3.68370","3864.72"
"44.40000","3.70044","3876.74"
"44.60000","3.71677","3887.36"
"44.80000","3.73330","3899.19"
"45.00000","3.75043","3910.2"
"45.20000","3.76686","3919.87"
"45.40000","3.78329","3929.09"
"45.60000","3.80073","3939.43"
"45.80000","3.81685","3947.91"
"46.00000","3.83318","3955.32"
"46.20000","3.85032","3963.99"
"46.40000","3.86685","3970.07"
"46.60000","3.88318","3975.58"
"46.80000","3.90021","3981.11"
"47.00000","3.91684","3985.4"
"47.20000","3.93387","3987.97"
"47.40000","3.94990","3986.26"
"47.60000","3.96714","3985.01"
"47.80000","3.98377","3978.93"
"48.00000","4.00020","3968.82"
"48.20000","4.01683","3952.48"
"48.40000","4.03356","3924.24"
"48.60000","4.05009","3868.53"
"48.74000","4.06158","3412.84"
"48.74800","4.06239","2643.23"
"48.75200","4.06279","2210.31"