File: Data_Processing/Tensile-Data/Sequence_34.csv
General : Start date,"10/29/2024 10:30 AM"
General : End date,"10/29/2024 10:31 AM"
Specimen notes : Specimen note 1,"Day 2, green, 230, batch 6, seq 34"
Test : Rate 1,"5.00000",mm/min

Time,Extension,Load
(s),(mm),(N)
"0.00000","0.00000","0.22193"
"0.20000","0.00887","7.93729"
"0.40000","0.03246","51.90243"
"0.60000","0.04888","80.07642"
"0.80000","0.06662","108.824"
"1.00000","0.08346","136.823"
"1.20000","0.09989","162.553"
"1.40000","0.11662","189.959"
"1.60000","0.13365","216.309"
"1.80000","0.15038","243.202"
"2.00000","0.16661","269.475"
"2.20000","0.18385","296.875"
"2.40000","0.20058","324.155"
"2.60000","0.21671","349.753"
"2.80000","0.23344","375.217"
"3.00000","0.25047","403.013"
"3.20000","0.26660","427.75"
"3.40000","0.28323","454.051"
"3.60000","0.30026","479.474"
"3.80000","0.31679","505.17"
"4.00000","0.33312","529.701"
"4.20000","0.35006","554.591"
"4.40000","0.36679","579.728"
"4.60000","0.38342","604.868"
"4.80000","0.39995","629.022"
"5.00000","0.41708","654.592"
"5.20000","0.43361","678.693"
"5.40000","0.44994","701.615"
"5.60000","0.46678","727.205"
"5.80000","0.48371","750.607"
"6.00000","0.49994","773.815"
"6.20000","0.51667","796.616"
"6.40000","0.53350","819.576"
"6.60000","0.55003","841.922"
"6.80000","0.56626","864.346"
"7.00000","0.58360","888.541"
"7.20000","0.59982","909.421"
"7.40000","0.61686","932.67"
"7.60000","0.63369","953.963"
"7.80000","0.65042","976.331"
"8.00000","0.66655","996.177"
"8.20000","0.68328","1017.15"
"8.40000","0.70031","1038.7"
"8.60000","0.71695","1059.2"
"8.80000","0.73327","1078.82"
"9.00000","0.75031","1100.55"
"9.20000","0.76694","1119.57"
"9.40000","0.78307","1140.24"
"9.60000","0.79990","1159.84"
"9.80000","0.81693","1180.42"
"10.00000","0.83336","1200"
"10.20000","0.84979","1219.11"
"10.40000","0.86693","1239.48"
"10.60000","0.88386","1258.92"
"10.80000","0.89989","1277.26"
"11.00000","0.91702","1298.42"
"11.20000","0.93365","1314.63"
"11.40000","0.94998","1331.97"
"11.60000","0.96651","1349.69"
"11.80000","0.98375","1368.45"
"12.00000","0.99997","1385.41"
"12.20000","1.01620","1401.92"
"12.40000","1.03344","1419.95"
"12.60000","1.05007","1437.3"
"12.80000","1.06650","1453.28"
"13.00000","1.08343","1469.56"
"13.20000","1.10046","1486.6"
"13.40000","1.11679","1501.72"
"13.60000","1.13302","1517.71"
"13.80000","1.15066","1533.59"
"14.00000","1.16669","1550.37"
"14.20000","1.18322","1566.06"
"14.40000","1.20035","1580.29"
"14.60000","1.21708","1596.9"
"14.80000","1.23311","1611.42"
"15.00000","1.25004","1626.07"
"15.20000","1.26667","1642.16"
"15.40000","1.28371","1657.29"
"15.60000","1.29963","1671.87"
"15.80000","1.31687","1688.59"
"16.00000","1.33370","1702.97"
"16.20000","1.35003","1718.05"
"16.40000","1.36686","1733.21"
"16.60000","1.38380","1749.31"
"16.80000","1.40023","1764.18"
"17.00000","1.41665","1777.73"
"17.20000","1.43359","1793.74"
"17.40000","1.45012","1810.39"
"17.60000","1.46655","1825.22"
"17.80000","1.48328","1839.97"
"18.00000","1.50021","1856.96"
"18.20000","1.51664","1871.55"
"18.40000","1.53327","1886.88"
"18.60000","1.55041","1902.04"
"18.80000","1.56684","1917.6"
"19.00000","1.58327","1932.65"
"19.20000","1.60030","1948.7"
"19.40000","1.61713","1964.11"
"19.60000","1.63346","1978.56"
"19.80000","1.64989","1994.21"
"20.00000","1.66693","2009.96"
"20.20000","1.68356","2025.57"
"20.40000","1.69968","2040.22"
"20.60000","1.71682","2057.34"
"20.80000","1.73365","2071.34"
"21.00000","1.74978","2085.55"
"21.20000","1.76701","2101.31"
"21.40000","1.78364","2117.1"
"21.60000","1.80017","2132.95"
"21.80000","1.81670","2146.99"
"22.00000","1.83374","2163.54"
"22.20000","1.85027","2179.01"
"22.40000","1.86629","2193.39"
"22.60000","1.88343","2209.43"
"22.80000","1.90036","2224.64"
"23.00000","1.91649","2239.62"
"23.20000","1.93312","2254.62"
"23.40000","1.95026","2270.42"
"23.60000","1.96658","2285.29"
"23.80000","1.98332","2300.14"
"24.00000","2.00035","2315.7"
"24.20000","2.01708","2331.4"
"24.40000","2.03341","2346.13"
"24.60000","2.05024","2362.06"
"24.80000","2.06687","2377.14"
"25.00000","2.08340","2391.66"
"25.20000","2.09963","2406.58"
"25.40000","2.11697","2422.98"
"25.60000","2.13350","2438.55"
"25.80000","2.14963","2453.6"
"26.00000","2.16696","2469.79"
"26.20000","2.18329","2484.63"
"26.40000","2.19992","2500.16"
"26.60000","2.21696","2515.99"
"26.80000","2.23369","2530.34"
"27.00000","2.25012","2544.86"
"27.20000","2.26675","2561.1"
"27.40000","2.28358","2576.29"
"27.60000","2.30031","2591.17"
"27.80000","2.31644","2605.76"
"28.00000","2.33347","2621.27"
"28.20000","2.35021","2636.21"
"28.40000","2.36643","2651.62"
"28.60000","2.38327","2666.34"
"28.80000","2.40030","2682.97"
"29.00000","2.41693","2698.25"
"29.20000","2.43336","2712.95"
"29.40000","2.45009","2728.94"
"29.60000","2.46723","2744.83"
"29.80000","2.48335","2758.88"
"30.00000","2.49998","2772.5"
"30.20000","2.51692","2789.49"
"30.40000","2.53375","2804.51"
"30.60000","2.54988","2818.54"
"30.80000","2.56711","2835.34"
"31.00000","2.58314","2849.14"
"31.20000","2.59987","2864.49"
"31.40000","2.61670","2879.84"
"31.60000","2.63354","2895.12"
"31.80000","2.64986","2909.66"
"32.00000","2.66650","2924.73"
"32.20000","2.68373","2941.22"
"32.40000","2.70036","2955.13"
"32.60000","2.71649","2969.41"
"32.80000","2.73372","2985.66"
"33.00000","2.75046","2999.53"
"33.20000","2.76668","3014.61"
"33.40000","2.78332","3029.27"
"33.60000","2.80025","3045.71"
"33.80000","2.81668","3059.06"
"34.00000","2.83311","3073.96"
"34.20000","2.84974","3089.67"
"34.40000","2.86687","3104.64"
"34.60000","2.88300","3118.65"
"34.80000","2.90014","3134.12"
"35.00000","2.91697","3148.63"
"35.20000","2.93340","3163.03"
"35.40000","2.94983","3177.46"
"35.60000","2.96716","3192.53"
"35.80000","2.98339","3206.35"
"36.00000","3.00012","3221.65"
"36.20000","3.01695","3237.15"
"36.40000","3.03359","3251.75"
"36.60000","3.04981","3265.69"
"36.80000","3.06644","3280.72"
"37.00000","3.08378","3295.95"
"37.20000","3.10021","3310.43"
"37.40000","3.11654","3323.65"
"37.60000","3.13367","3339.48"
"37.80000","3.15010","3353.09"
"38.00000","3.16653","3367.27"
"38.20000","3.18347","3381.66"
"38.40000","3.20040","3397.18"
"38.60000","3.21663","3410.94"
"38.80000","3.23336","3424.92"
"39.00000","3.25009","3438.91"
"39.20000","3.26712","3453.7"
"39.40000","3.28305","3466.88"
"39.60000","3.30029","3482.43"
"39.80000","3.31692","3496.24"
"40.00000","3.33325","3510.26"
"40.20000","3.35018","3524.3"
"40.40000","3.36711","3538.66"
"40.60000","3.38344","3551.11"
"40.80000","3.39997","3564.93"
"41.00000","3.41711","3578.88"
"41.20000","3.43354","3592.02"
"41.40000","3.44986","3604.46"
"41.60000","3.46700","3618.59"
"41.80000","3.48383","3632.07"
"42.00000","3.49996","3644.79"
"42.20000","3.51649","3657.37"
"42.40000","3.53372","3671.13"
"42.60000","3.55015","3684.43"
"42.80000","3.56668","3697.01"
"43.00000","3.58352","3709.43"
"43.20000","3.60035","3722.52"
"43.40000","3.61658","3735.02"
"43.60000","3.63341","3747.28"
"43.80000","3.65014","3760.03"
"44.00000","3.66707","3771.68"
"44.20000","3.68310","3781.98"
"44.40000","3.70024","3793.92"
"44.60000","3.71666","3804.89"
"44.80000","3.73309","3815.77"
"45.00000","3.75023","3826.81"
"45.20000","3.76696","3837.7"
"45.40000","3.78319","3847.21"
"45.60000","3.80012","3856.69"
"45.80000","3.81716","3866.94"
"46.00000","3.83359","3875.07"
"46.20000","3.85012","3883.04"
"46.40000","3.86685","3891.12"
"46.60000","3.88378","3899.01"
"46.80000","3.90001","3905.55"
"47.00000","3.91654","3909.78"
"47.20000","3.93398","3915.42"
"47.40000","3.95000","3917.69"
"47.60000","3.96643","3918.8"
"47.80000","3.98367","3920.31"
"48.00000","4.00030","3919.67"
"48.20000","4.01653","3915.64"
"48.40000","4.03336","3910.24"
"48.60000","4.05039","3902.89"
"48.80000","4.06682","3890.17"
"49.00000","4.08315","3872.95"
"49.20000","4.10049","3846.69"
"49.40000","4.11722","3791.91"
"49.49600","4.12488","3095.18"
"49.50400","4.12568","2265.95"