File: Data_Processing/Tensile-Data/Sequence_35.csv
General : Start date,"10/29/2024 10:33 AM"
General : End date,"10/29/2024 10:33 AM"
Specimen notes : Specimen note 1,"Day 2, purple, 215, batch 12, seq 35"
Test : Rate 1,"5.00000",mm/min

Time,Extension,Load
(s),(mm),(N)
"0.00000","0.00010","0.12741"
"0.20000","0.01351","16.81806"
"0.40000","0.03407","58.29472"
"0.60000","0.05221","89.46882"
"0.80000","0.06864","116.582"
"1.00000","0.08547","143.342"
"1.20000","0.10231","170.883"
"1.40000","0.11894","198.964"
"1.60000","0.13527","226.112"
"1.80000","0.15230","252.814"
"2.00000","0.16893","280.556"
"2.20000","0.18556","308.139"
"2.40000","0.20229","336.182"
"2.60000","0.21933","363.934"
"2.80000","0.23576","390.992"
"3.00000","0.25198","416.325"
"3.20000","0.26912","443.555"
"3.40000","0.28555","470.046"
"3.60000","0.30198","496.367"
"3.80000","0.31881","522.353"
"4.00000","0.33564","549.265"
"4.20000","0.35197","574.689"
"4.40000","0.36860","600.701"
"4.60000","0.38574","626.936"
"4.80000","0.40207","651.854"
"5.00000","0.41880","677.586"
"5.20000","0.43573","703.537"
"5.40000","0.45266","729.998"
"5.60000","0.46869","755.106"
"5.80000","0.48552","780.136"
"6.00000","0.50215","806.188"
"6.20000","0.51889","831.721"
"6.40000","0.53521","854.13"
"6.60000","0.55225","879.253"
"6.80000","0.56898","903.186"
"7.00000","0.58501","926.692"
"7.20000","0.60224","951.28"
"7.40000","0.61867","975.775"
"7.60000","0.63571","999.128"
"7.80000","0.65213","1022.82"
"8.00000","0.66917","1046.6"
"8.20000","0.68580","1068.88"
"8.40000","0.70193","1090.97"
"8.60000","0.71906","1113.93"
"8.80000","0.73579","1136.71"
"9.00000","0.75212","1158.67"
"9.20000","0.76855","1181.19"
"9.40000","0.78579","1203.47"
"9.60000","0.80212","1225.22"
"9.80000","0.81855","1247.2"
"10.00000","0.83558","1268.86"
"10.20000","0.85231","1290.39"
"10.40000","0.86864","1309.92"
"10.60000","0.88537","1331.99"
"10.80000","0.90261","1352.95"
"11.00000","0.91894","1373.3"
"11.20000","0.93516","1391.67"
"11.40000","0.95240","1413.37"
"11.60000","0.96923","1433.48"
"11.80000","0.98516","1452.79"
"12.00000","1.00239","1473.41"
"12.20000","1.01892","1492.82"
"12.40000","1.03515","1512.32"
"12.60000","1.05198","1530.17"
"12.80000","1.06882","1549.69"
"13.00000","1.08535","1565.92"
"13.20000","1.10198","1585.04"
"13.40000","1.11901","1604.44"
"13.60000","1.13584","1622.35"
"13.80000","1.15187","1639.68"
"14.00000","1.16870","1657.71"
"14.20000","1.18594","1676.47"
"14.40000","1.20186","1692.95"
"14.60000","1.21870","1709.98"
"14.80000","1.23583","1728.53"
"15.00000","1.25236","1745.2"
"15.20000","1.26849","1761.31"
"15.40000","1.28542","1778.74"
"15.60000","1.30246","1794.92"
"15.80000","1.31868","1810.82"
"16.00000","1.33531","1825.96"
"16.20000","1.35245","1842.35"
"16.40000","1.36888","1857.39"
"16.60000","1.38521","1872.66"
"16.80000","1.40264","1888.75"
"17.00000","1.41887","1904.6"
"17.20000","1.43550","1921.73"
"17.40000","1.45213","1936.33"
"17.60000","1.46907","1952.67"
"17.80000","1.48529","1968.48"
"18.00000","1.50193","1985.67"
"18.20000","1.51926","2003.53"
"18.40000","1.53579","2018.47"
"18.60000","1.55182","2034.03"
"18.80000","1.56905","2050.82"
"19.00000","1.58569","2066.52"
"19.20000","1.60201","2082.51"
"19.40000","1.61875","2096.62"
"19.60000","1.63578","2114.03"
"19.80000","1.65221","2129.41"
"20.00000","1.66864","2145.14"
"20.20000","1.68537","2161.52"
"20.40000","1.70251","2177.86"
"20.60000","1.71853","2193.01"
"20.80000","1.73546","2209.65"
"21.00000","1.75230","2226.14"
"21.20000","1.76883","2241.57"
"21.40000","1.78536","2258.31"
"21.60000","1.80239","2274.34"
"21.80000","1.81892","2289.32"
"22.00000","1.83545","2304.31"
"22.20000","1.85249","2320.76"
"22.40000","1.86912","2336.56"
"22.60000","1.88534","2351.2"
"22.80000","1.90177","2366.53"
"23.00000","1.91911","2382.54"
"23.20000","1.93554","2398.33"
"23.40000","1.95177","2412.56"
"23.60000","1.96880","2428.88"
"23.80000","1.98563","2445.26"
"24.00000","2.00186","2459.78"
"24.20000","2.01900","2476.28"
"24.40000","2.03603","2492.68"
"24.60000","2.05226","2507.25"
"24.80000","2.06889","2521.67"
"25.00000","2.08552","2538.94"
"25.20000","2.10256","2553.26"
"25.40000","2.11848","2567.93"
"25.60000","2.13551","2584.51"
"25.80000","2.15235","2598.46"
"26.00000","2.16847","2613.45"
"26.20000","2.18531","2628.94"
"26.40000","2.20254","2645.3"
"26.60000","2.21887","2659.39"
"26.80000","2.23540","2676.08"
"27.00000","2.25244","2691.83"
"27.20000","2.26897","2707.4"
"27.40000","2.28539","2721.71"
"27.60000","2.30213","2737.71"
"27.80000","2.31916","2753.87"
"28.00000","2.33539","2769.25"
"28.20000","2.35192","2784.5"
"28.40000","2.36915","2799.75"
"28.60000","2.38548","2815.45"
"28.80000","2.40181","2830.61"
"29.00000","2.41895","2846.61"
"29.20000","2.43558","2860.96"
"29.40000","2.45211","2877"
"29.60000","2.46884","2890.72"
"29.80000","2.48577","2907.14"
"30.00000","2.50261","2922.99"
"30.20000","2.51863","2936.56"
"30.40000","2.53587","2951.94"
"30.60000","2.55220","2967.03"
"30.80000","2.56883","2981.95"
"31.00000","2.58576","2996.66"
"31.20000","2.60229","3011.79"
"31.40000","2.61872","3027.43"
"31.60000","2.63525","3041.78"
"31.80000","2.65228","3057.49"
"32.00000","2.66881","3072.02"
"32.20000","2.68534","3087.04"
"32.40000","2.70218","3102.16"
"32.60000","2.71911","3117.59"
"32.80000","2.73534","3131.85"
"33.00000","2.75217","3146.62"
"33.20000","2.76920","3161.82"
"33.40000","2.78543","3175.28"
"33.60000","2.80206","3189.64"
"33.80000","2.81910","3204.94"
"34.00000","2.83593","3219.7"
"34.20000","2.85186","3233.06"
"34.40000","2.86879","3248.22"
"34.60000","2.88512","3262.09"
"34.80000","2.90215","3277.51"
"35.00000","2.91848","3290.34"
"35.20000","2.93561","3305.65"
"35.40000","2.95255","3320.18"
"35.60000","2.96857","3332.14"
"35.80000","2.98581","3348.34"
"36.00000","3.00224","3363.21"
"36.20000","3.01877","3375.48"
"36.40000","3.03550","3390.41"
"36.60000","3.05254","3404.61"
"36.80000","3.06876","3418.66"
"37.00000","3.08519","3432.61"
"37.20000","3.10223","3447.32"
"37.40000","3.11926","3461.73"
"37.60000","3.13529","3473.67"
"37.80000","3.15222","3488.68"
"38.00000","3.16905","3502.57"
"38.20000","3.18538","3516"
"38.40000","3.20201","3528.96"
"38.60000","3.21905","3543.75"
"38.80000","3.23568","3555.9"
"39.00000","3.25191","3568.24"
"39.20000","3.26874","3581.14"
"39.40000","3.28577","3594.63"
"39.60000","3.30200","3606.29"
"39.80000","3.31873","3619.39"
"40.00000","3.33566","3632.08"
"40.20000","3.35240","3643.47"
"40.40000","3.36852","3654.29"
"40.60000","3.38596","3668.31"
"40.80000","3.40219","3678.77"
"41.00000","3.41882","3688.68"
"41.20000","3.43565","3699.41"
"41.40000","3.45248","3710.94"
"41.60000","3.46861","3718.34"
"41.80000","3.48524","3727.33"
"42.00000","3.50258","3737.33"
"42.20000","3.51901","3744.75"
"42.40000","3.53514","3750.75"
"42.60000","3.55237","3757.56"
"42.80000","3.56900","3762.87"
"43.00000","3.58533","3766.03"
"43.20000","3.60216","3769.67"
"43.40000","3.61910","3771.46"
"43.60000","3.63573","3771.07"
"43.80000","3.65196","3766.13"
"44.00000","3.66889","3760.6"
"44.20000","3.68592","3750.89"
"44.40000","3.70205","3731.6"
"44.60000","3.71888","3702.91"
"44.80000","3.73561","3635.46"
"44.87600","3.74206","2972.18"
"44.88400","3.74287","2178.83"