File: Data_Processing/Tensile-Data/Sequence_6.csv
General : Start date,"10/22/2024 9:24 AM"
General : End date,"10/22/2024 9:25 AM"
Specimen notes : Specimen note 1,"purple, 200, batch 10, seq 6"
Test : Rate 1,"5.00000",mm/min

Time,Extension,Load
(s),(mm),(N)
"0.00000","-0.00020","-0.07016"
"0.20000","0.01058","12.62137"
"0.40000","0.03326","56.08270"
"0.60000","0.04979","83.30157"
"0.80000","0.06642","110.401"
"1.00000","0.08336","138.073"
"1.20000","0.10019","166.217"
"1.40000","0.11632","193.444"
"1.60000","0.13345","223.321"
"1.80000","0.15028","251.744"
"2.00000","0.16651","277.959"
"2.20000","0.18334","306.536"
"2.40000","0.20028","333.773"
"2.60000","0.21661","360.934"
"2.80000","0.23314","388.061"
"3.00000","0.25027","416.159"
"3.20000","0.26690","443.772"
"3.40000","0.28323","469.029"
"3.60000","0.30006","497.111"
"3.80000","0.31710","524.157"
"4.00000","0.33332","550.232"
"4.20000","0.34975","577.434"
"4.40000","0.36689","604.078"
"4.60000","0.38302","630.75"
"4.80000","0.39955","655.612"
"5.00000","0.41688","683.985"
"5.20000","0.43341","709.841"
"5.40000","0.45004","735.606"
"5.60000","0.46678","762.382"
"5.80000","0.48351","788.818"
"6.00000","0.50004","814.712"
"6.20000","0.51657","840.044"
"6.40000","0.53350","866.359"
"6.60000","0.55033","892.44"
"6.80000","0.56636","917.48"
"7.00000","0.58349","942.634"
"7.20000","0.60013","968.798"
"7.40000","0.61666","993.738"
"7.60000","0.63319","1018.67"
"7.80000","0.65012","1044.79"
"8.00000","0.66645","1069.33"
"8.20000","0.68298","1092.29"
"8.40000","0.69981","1118.28"
"8.60000","0.71695","1144.02"
"8.80000","0.73307","1167.05"
"9.00000","0.74970","1190.36"
"9.20000","0.76694","1216.99"
"9.40000","0.78337","1240.08"
"9.60000","0.79980","1263.26"
"9.80000","0.81683","1287.8"
"10.00000","0.83356","1311.73"
"10.20000","0.84969","1333.31"
"10.40000","0.86683","1357.5"
"10.60000","0.88315","1380.28"
"10.80000","0.90019","1404.22"
"11.00000","0.91631","1426.32"
"11.20000","0.93335","1450.52"
"11.40000","0.95028","1472.69"
"11.60000","0.96621","1495.54"
"11.80000","0.98354","1518.44"
"12.00000","1.00018","1541.21"
"12.20000","1.01671","1562.09"
"12.40000","1.03313","1583.24"
"12.60000","1.05027","1605.71"
"12.80000","1.06670","1626.61"
"13.00000","1.08303","1647.31"
"13.20000","1.09996","1669.93"
"13.40000","1.11699","1691.49"
"13.60000","1.13302","1710.97"
"13.80000","1.14985","1731.16"
"14.00000","1.16709","1753.25"
"14.20000","1.18312","1773.67"
"14.40000","1.19985","1793.16"
"14.60000","1.21688","1814.47"
"14.80000","1.23341","1834.64"
"15.00000","1.24974","1854.19"
"15.20000","1.26647","1875.01"
"15.40000","1.28361","1895.77"
"15.60000","1.29983","1914.36"
"15.80000","1.31667","1935.06"
"16.00000","1.33360","1954.94"
"16.20000","1.35023","1974.35"
"16.40000","1.36626","1989.81"
"16.60000","1.38380","2011.17"
"16.80000","1.40002","2030.23"
"17.00000","1.41655","2047.85"
"17.20000","1.43329","2067.42"
"17.40000","1.45012","2087.23"
"17.60000","1.46645","2106.45"
"17.80000","1.48308","2124.36"
"18.00000","1.50021","2143.69"
"18.20000","1.51674","2162.82"
"18.40000","1.53297","2180.26"
"18.60000","1.55021","2198.28"
"18.80000","1.56694","2216.05"
"19.00000","1.58306","2234.21"
"19.20000","1.60010","2250.9"
"19.40000","1.61673","2269"
"19.60000","1.63356","2286.55"
"19.80000","1.64989","2301.4"
"20.00000","1.66682","2317.06"
"20.20000","1.68356","2331.55"
"20.40000","1.69978","2346.98"
"20.60000","1.71672","2363.54"
"20.80000","1.73325","2380.72"
"21.00000","1.74988","2397.99"
"21.20000","1.76641","2413.3"
"21.40000","1.78364","2430.73"
"21.60000","1.79987","2417.43"
"21.80000","1.81681","2383.61"
"22.00000","1.83364","2405.22"
"22.20000","1.85017","2425.25"
"22.40000","1.86650","2444.96"
"22.60000","1.88313","2464.27"
"22.80000","1.90016","2484.69"
"23.00000","1.91679","2503.04"
"23.20000","1.93302","2519.99"
"23.40000","1.94995","2538.98"
"23.60000","1.96658","2557.19"
"23.80000","1.98291","2573.18"
"24.00000","1.99995","2591.98"
"24.20000","2.01688","2610.12"
"24.40000","2.03331","2626.14"
"24.60000","2.04984","2642.16"
"24.80000","2.06677","2659.81"
"25.00000","2.08371","2677.26"
"25.20000","2.09963","2692.66"
"25.40000","2.11687","2710.21"
"25.60000","2.13350","2726.84"
"25.80000","2.14963","2743.18"
"26.00000","2.16656","2759.46"
"26.20000","2.18349","2775.63"
"26.40000","2.19982","2786.08"
"26.60000","2.21635","2800.86"
"26.80000","2.23339","2817.81"
"27.00000","2.25022","2832.62"
"27.20000","2.26645","2847.43"
"27.40000","2.28348","2863.67"
"27.60000","2.30041","2880.05"
"27.80000","2.31674","2894.5"
"28.00000","2.33297","2908.17"
"28.20000","2.35041","2862.85"
"28.40000","2.36663","2883.27"
"28.60000","2.38306","2901.85"
"28.80000","2.40020","2917.79"
"29.00000","2.41693","2933.77"
"29.20000","2.43316","2951.94"
"29.40000","2.44999","2967.59"
"29.60000","2.46672","2984.75"
"29.80000","2.48366","3000.5"
"30.00000","2.49958","3016.11"
"30.20000","2.51692","3034.38"
"30.40000","2.53335","3050.79"
"30.60000","2.54978","3065.86"
"30.80000","2.56671","3082.59"
"31.00000","2.58364","3098.54"
"31.20000","2.60007","3113.28"
"31.40000","2.61660","3127.93"
"31.60000","2.63354","3144.53"
"31.80000","2.65007","3159.27"
"32.00000","2.66629","3173.84"
"32.20000","2.68343","3187.47"
"32.40000","2.70046","3201.89"
"32.60000","2.71649","3215.97"
"32.80000","2.73332","3229.81"
"33.00000","2.75046","3245.11"
"33.20000","2.76658","3259.18"
"33.40000","2.78301","3271.63"
"33.60000","2.80015","3285.95"
"33.80000","2.81688","3300.1"
"34.00000","2.83311","3312.58"
"34.20000","2.84984","3327.41"
"34.40000","2.86677","3341.9"
"34.60000","2.88340","3355.19"
"34.80000","2.89973","3362.81"
"35.00000","2.91687","3374.29"
"35.20000","2.93350","3387.4"
"35.40000","2.94962","3399.64"
"35.60000","2.96696","3339.07"
"35.80000","2.98329","3359.66"
"36.00000","3.00002","3377.15"
"36.20000","3.01665","3392.73"
"36.40000","3.03349","3408.65"
"36.60000","3.04991","3423.19"
"36.80000","3.06634","3437.86"
"37.00000","3.08338","3452.12"
"37.20000","3.10031","3403.55"
"37.40000","3.11624","3421.52"
"37.60000","3.13327","3439.62"
"37.80000","3.15031","3457.25"
"38.00000","3.16653","3473.52"
"38.20000","3.18326","3489.13"
"38.40000","3.20010","3505.62"
"38.60000","3.21713","3520.86"
"38.80000","3.23306","3533.46"
"39.00000","3.24999","3466.58"
"39.20000","3.26682","3443.34"
"39.40000","3.28325","3456.98"
"39.60000","3.29978","3469.61"
"39.80000","3.31682","3484.82"
"40.00000","3.33345","3498.96"
"40.20000","3.34937","3512.94"
"40.40000","3.36691","3526.08"
"40.60000","3.38334","3536.88"
"40.80000","3.39997","3549.9"
"41.00000","3.41670","3563.65"
"41.20000","3.43374","3577"
"41.40000","3.44996","3588.64"
"41.60000","3.46639","3600.88"
"41.80000","3.48373","3612.45"
"42.00000","3.50036","3623.73"
"42.20000","3.51639","3634.59"
"42.40000","3.53332","3646.13"
"42.60000","3.55005","3657.29"
"42.80000","3.56628","3667.7"
"43.00000","3.58331","3679.11"
"43.20000","3.60015","3689.43"
"43.40000","3.61678","3699.76"
"43.60000","3.63331","3708.48"
"43.80000","3.65004","3718.56"
"44.00000","3.66707","3728.35"
"44.20000","3.68320","3737.08"
"44.40000","3.70013","3745.24"
"44.60000","3.71687","3752.77"
"44.80000","3.73319","3760.04"
"45.00000","3.74972","3767.61"
"45.20000","3.76696","3776.5"
"45.40000","3.78319","3782.32"
"45.60000","3.79992","3789.26"
"45.80000","3.81655","3795.55"
"46.00000","3.83348","3801.52"
"46.20000","3.84971","3806.54"
"46.40000","3.86624","3811.5"
"46.60000","3.88368","3818.15"
"46.80000","3.90011","3823.09"
"47.00000","3.91644","3826.37"
"47.20000","3.93357","3830.64"
"47.40000","3.95020","3834.39"
"47.60000","3.96653","3834.21"
"47.80000","3.98326","3836.59"
"48.00000","3.99989","3836.79"
"48.20000","4.01673","3837.15"
"48.40000","4.03306","3834.57"
"48.60000","4.04979","3830.28"
"48.80000","4.06682","3821.46"
"49.00000","4.08295","3799.09"
"49.20000","4.10049","3644.32"
"49.40000","4.11692","3459.47"
"49.60000","4.13355","3362.52"
"49.80000","4.14998","3236.22"
"49.86200","4.15562","2727.28"
"49.87000","4.15643","2127.17"
"49.87200","4.15663","1954.91"