File: Data_Processing/Tensile-Data/Sequence_15.csv
General : Start date,"10/22/2024 9:53 AM"
General : End date,"10/22/2024 9:54 AM"
Specimen notes : Specimen note 1,"green, 200, batch 2, seq 15"
Test : Rate 1,"5.00000",mm/min

Time,Extension,Load
(s),(mm),(N)
"0.00000","0.00000","-0.73047"
"0.20000","0.00867","7.86480"
"0.40000","0.03256","53.07104"
"0.60000","0.04959","83.04321"
"0.80000","0.06642","110.753"
"1.00000","0.08356","129.525"
"1.20000","0.10029","157.407"
"1.40000","0.11642","184.395"
"1.60000","0.13345","212.074"
"1.80000","0.15028","240.449"
"2.00000","0.16691","267.783"
"2.20000","0.18334","294.589"
"2.40000","0.20028","322.224"
"2.60000","0.21701","349.159"
"2.80000","0.23344","374.778"
"3.00000","0.25017","403.371"
"3.20000","0.26690","431.633"
"3.40000","0.28353","456.508"
"3.60000","0.29996","483.419"
"3.80000","0.31700","510.617"
"4.00000","0.33353","537.69"
"4.20000","0.34985","564.097"
"4.40000","0.36689","591.44"
"4.60000","0.38362","619.59"
"4.80000","0.39995","644.758"
"5.00000","0.41668","670.698"
"5.20000","0.43382","697.092"
"5.40000","0.44994","722.558"
"5.60000","0.46667","747.678"
"5.80000","0.48361","774.664"
"6.00000","0.50024","800.573"
"6.20000","0.51657","825.579"
"6.40000","0.53360","851.626"
"6.60000","0.55053","879.196"
"6.80000","0.56676","903.712"
"7.00000","0.58339","927.857"
"7.20000","0.60002","953.748"
"7.40000","0.61696","979.2"
"7.60000","0.63288","1003.03"
"7.80000","0.65002","1029.97"
"8.00000","0.66685","1055.39"
"8.20000","0.68328","1079.79"
"8.40000","0.70011","1105.68"
"8.60000","0.71695","1129.24"
"8.80000","0.73337","1153.74"
"9.00000","0.75001","1179.29"
"9.20000","0.76704","1205.19"
"9.40000","0.78357","1230.46"
"9.60000","0.80000","1254.48"
"9.80000","0.81663","1279.21"
"10.00000","0.83397","1303.72"
"10.20000","0.85009","1326.74"
"10.40000","0.86652","1351.66"
"10.60000","0.88366","1376.56"
"10.80000","0.89989","1398.83"
"11.00000","0.91642","1422.55"
"11.20000","0.93345","1446.05"
"11.40000","0.95028","1471.43"
"11.60000","0.96671","1495.27"
"11.80000","0.98344","1518.8"
"12.00000","1.00007","1541.66"
"12.20000","1.01701","1565.12"
"12.40000","1.03324","1587.57"
"12.60000","1.05047","1611.85"
"12.80000","1.06690","1634.7"
"13.00000","1.08313","1657.5"
"13.20000","1.10026","1680.27"
"13.40000","1.11699","1703.6"
"13.60000","1.13353","1727.25"
"13.80000","1.15006","1750.08"
"14.00000","1.16679","1770.65"
"14.20000","1.18332","1793.4"
"14.40000","1.19965","1812.91"
"14.60000","1.21688","1836.36"
"14.80000","1.23371","1859.28"
"15.00000","1.24984","1881.39"
"15.20000","1.26667","1903.27"
"15.40000","1.28391","1925.51"
"15.60000","1.30014","1946.13"
"15.80000","1.31657","1967.14"
"16.00000","1.33350","1988.85"
"16.20000","1.35033","2011.37"
"16.40000","1.36656","2030.98"
"16.60000","1.38359","2053.81"
"16.80000","1.39992","2075.77"
"17.00000","1.41696","2097.71"
"17.20000","1.43318","2118.22"
"17.40000","1.45022","2140.21"
"17.60000","1.46695","2160.46"
"17.80000","1.48328","2179.65"
"18.00000","1.50041","2202.81"
"18.20000","1.51694","2221.46"
"18.40000","1.53337","2240.19"
"18.60000","1.54990","2261.74"
"18.80000","1.56694","2282.91"
"19.00000","1.58347","2301.59"
"19.20000","1.59980","2321.95"
"19.40000","1.61693","2343"
"19.60000","1.63376","2361.01"
"19.80000","1.64989","2379.89"
"20.00000","1.66682","2400.26"
"20.20000","1.68376","2419.85"
"20.40000","1.69999","2437.65"
"20.60000","1.71662","2455.27"
"20.80000","1.73355","2476.18"
"21.00000","1.75038","2495.4"
"21.20000","1.76641","2514.1"
"21.40000","1.78334","2534.04"
"21.60000","1.80078","2552.83"
"21.80000","1.81670","2570.76"
"22.00000","1.83344","2589.02"
"22.20000","1.85017","2608.88"
"22.40000","1.86700","2627.31"
"22.60000","1.88313","2646.48"
"22.80000","1.90056","2665.4"
"23.00000","1.91689","2680.82"
"23.20000","1.93332","2694.85"
"23.40000","1.95016","2713.12"
"23.60000","1.96719","2732.14"
"23.80000","1.98311","2748.46"
"24.00000","1.99985","2764.37"
"24.20000","2.01718","2782.03"
"24.40000","2.03341","2799.07"
"24.60000","2.04974","2816.33"
"24.80000","2.06708","2834.76"
"25.00000","2.08361","2850.52"
"25.20000","2.09983","2868.53"
"25.40000","2.11667","2883.98"
"25.60000","2.13360","2901.85"
"25.80000","2.15033","2861.08"
"26.00000","2.16666","2865.6"
"26.20000","2.18359","2885.5"
"26.40000","2.20043","2905.76"
"26.60000","2.21655","2923.39"
"26.80000","2.23359","2941.62"
"27.00000","2.25002","2959.61"
"27.20000","2.26665","2977.6"
"27.40000","2.28318","2994.41"
"27.60000","2.30041","3013.15"
"27.80000","2.31674","3031.27"
"28.00000","2.33357","3047.52"
"28.20000","2.35031","3065.32"
"28.40000","2.36704","3081.57"
"28.60000","2.38327","3099.4"
"28.80000","2.39990","3114.79"
"29.00000","2.41703","3132.22"
"29.20000","2.43336","3148.58"
"29.40000","2.44989","3163.74"
"29.60000","2.46703","3179.94"
"29.80000","2.48345","3195.8"
"30.00000","2.49988","3209.96"
"30.20000","2.51682","3226.06"
"30.40000","2.53355","3240.71"
"30.60000","2.55018","3254.39"
"30.80000","2.56661","3270.3"
"31.00000","2.58354","3284.91"
"31.20000","2.60068","3299.43"
"31.40000","2.61630","3312.59"
"31.60000","2.63384","3327.77"
"31.80000","2.65027","3341.59"
"32.00000","2.66650","3355.37"
"32.20000","2.68333","3368.45"
"32.40000","2.70026","3381.79"
"32.60000","2.71669","3394.01"
"32.80000","2.73322","3406.87"
"33.00000","2.75015","3419.36"
"33.20000","2.76719","3433.14"
"33.40000","2.78311","3443.78"
"33.60000","2.80035","3457.24"
"33.80000","2.81728","3468.1"
"34.00000","2.83331","3415.29"
"34.20000","2.85004","3430.52"
"34.40000","2.86728","3447.64"
"34.60000","2.88340","3460.67"
"34.80000","2.89983","3474.94"
"35.00000","2.91677","3488.85"
"35.20000","2.93350","3493.4"
"35.40000","2.94983","3504.5"
"35.60000","2.96666","3515.36"
"35.80000","2.98359","3524.44"
"36.00000","3.00042","3531.09"
"36.20000","3.01625","3535.09"
"36.40000","3.03379","3542.7"
"36.60000","3.05012","3551.81"
"36.80000","3.06655","3561.67"
"37.00000","3.08368","3570.46"
"37.20000","3.10041","3582.09"
"37.40000","3.11684","3591.13"
"37.60000","3.13337","3593.23"
"37.80000","3.15041","3542.22"
"38.00000","3.16684","3558.64"
"38.20000","3.18306","3571.48"
"38.40000","3.20030","3585.17"
"38.60000","3.21723","3597.4"
"38.80000","3.23336","3610.61"
"39.00000","3.25009","3621.68"
"39.20000","3.26733","3633.25"
"39.40000","3.28325","3644.34"
"39.60000","3.29998","3653.82"
"39.80000","3.31702","3664.63"
"40.00000","3.33365","3675.11"
"40.20000","3.34998","3683.71"
"40.40000","3.36671","3693.54"
"40.60000","3.38354","3703.03"
"40.80000","3.40017","3710.16"
"41.00000","3.41640","3716.72"
"41.20000","3.43384","3724.17"
"41.40000","3.45037","3726.34"
"41.60000","3.46649","3731.2"
"41.80000","3.48363","3737.04"
"42.00000","3.50006","3740.83"
"42.20000","3.51679","3743.51"
"42.40000","3.53342","3744.31"
"42.60000","3.55025","3746.78"
"42.80000","3.56678","3745.51"
"43.00000","3.58331","3743.31"
"43.20000","3.60025","3741.18"
"43.40000","3.61708","3734.74"
"43.60000","3.63311","3724.12"
"43.80000","3.65024","3701.39"
"44.00000","3.66717","3606.11"
"44.13600","3.67826","3194.22"
"44.14400","3.67897","2522.71"
"44.15000","3.67967","1936.98"