File: Data_Processing/Tensile-Data/Sequence_29.csv
General : Start date,"10/29/2024 10:17 AM"
General : End date,"10/29/2024 10:18 AM"
Specimen notes : Specimen note 1,"Day 2, red, 215, batch 12, seq 29"
Test : Rate 1,"5.00000",mm/min

Time,Extension,Load
(s),(mm),(N)
"0.00000","0.00000","0.69299"
"0.20000","0.01048","11.35128"
"0.40000","0.03276","55.99495"
"0.60000","0.04929","83.69020"
"0.80000","0.06703","114.466"
"1.00000","0.08366","144.567"
"1.20000","0.09999","172.504"
"1.40000","0.11682","201.26"
"1.60000","0.13375","230.103"
"1.80000","0.14998","257.456"
"2.00000","0.16651","283.617"
"2.20000","0.18365","312.259"
"2.40000","0.20028","338.992"
"2.60000","0.21691","367.089"
"2.80000","0.23364","394.19"
"3.00000","0.25047","422.134"
"3.20000","0.26670","448.745"
"3.40000","0.28343","474.72"
"3.60000","0.30016","501.577"
"3.80000","0.31690","528.347"
"4.00000","0.33322","552.992"
"4.20000","0.35016","579.456"
"4.40000","0.36689","604.76"
"4.60000","0.38292","630.663"
"4.80000","0.40005","656.916"
"5.00000","0.41658","682.43"
"5.20000","0.43372","708.146"
"5.40000","0.45014","732.169"
"5.60000","0.46738","758.381"
"5.80000","0.48371","782.569"
"6.00000","0.50014","805.708"
"6.20000","0.51687","830.962"
"6.40000","0.53380","856.188"
"6.60000","0.55013","879.844"
"6.80000","0.56666","903.333"
"7.00000","0.58360","926.785"
"7.20000","0.60002","950.841"
"7.40000","0.61645","972.419"
"7.60000","0.63369","996.487"
"7.80000","0.65012","1018.55"
"8.00000","0.66655","1040.94"
"8.20000","0.68338","1063.57"
"8.40000","0.70042","1086.36"
"8.60000","0.71695","1107.46"
"8.80000","0.73327","1128.84"
"9.00000","0.75041","1149.79"
"9.20000","0.76714","1171.19"
"9.40000","0.78296","1192.4"
"9.60000","0.80030","1215.25"
"9.80000","0.81703","1236.79"
"10.00000","0.83316","1257.35"
"10.20000","0.84979","1279.17"
"10.40000","0.86693","1300.45"
"10.60000","0.88325","1319.86"
"10.80000","0.89999","1340.91"
"11.00000","0.91702","1361.92"
"11.20000","0.93375","1382.72"
"11.40000","0.94998","1399.86"
"11.60000","0.96671","1418.59"
"11.80000","0.98385","1438.07"
"12.00000","0.99997","1457.59"
"12.20000","1.01671","1474.66"
"12.40000","1.03364","1494.27"
"12.60000","1.05017","1512.7"
"12.80000","1.06630","1528.74"
"13.00000","1.08343","1548.82"
"13.20000","1.10026","1566.25"
"13.40000","1.11649","1584.52"
"13.60000","1.13332","1602.58"
"13.80000","1.15046","1621.33"
"14.00000","1.16689","1638.84"
"14.20000","1.18322","1655.42"
"14.40000","1.20045","1673.86"
"14.60000","1.21688","1691.42"
"14.80000","1.23341","1708.79"
"15.00000","1.25014","1725.78"
"15.20000","1.26708","1744.25"
"15.40000","1.28320","1760.44"
"15.60000","1.30004","1777.93"
"15.80000","1.31707","1795.87"
"16.00000","1.33380","1812.02"
"16.20000","1.34983","1827.28"
"16.40000","1.36696","1845.44"
"16.60000","1.38359","1861.89"
"16.80000","1.40002","1877.38"
"17.00000","1.41665","1894.34"
"17.20000","1.43389","1911.06"
"17.40000","1.45032","1927.68"
"17.60000","1.46665","1942.19"
"17.80000","1.48338","1959.27"
"18.00000","1.50041","1976.2"
"18.20000","1.51654","1991.4"
"18.40000","1.53347","2008.59"
"18.60000","1.55031","2025.26"
"18.80000","1.56674","2042.85"
"19.00000","1.58327","2058.42"
"19.20000","1.60030","2075.86"
"19.40000","1.61703","2092.4"
"19.60000","1.63336","2108.78"
"19.80000","1.65029","2125.44"
"20.00000","1.66713","2142.29"
"20.20000","1.68325","2157.13"
"20.40000","1.69978","2173.04"
"20.60000","1.71702","2190.07"
"20.80000","1.73355","2206.33"
"21.00000","1.74968","2222.32"
"21.20000","1.76681","2238.68"
"21.40000","1.78364","2254.3"
"21.60000","1.79987","2270.02"
"21.80000","1.81701","2286.75"
"22.00000","1.83374","2302.65"
"22.20000","1.85017","2317.38"
"22.40000","1.86660","2333.79"
"22.60000","1.88363","2349.94"
"22.80000","1.90056","2365.63"
"23.00000","1.91639","2381.41"
"23.20000","1.93363","2397.92"
"23.40000","1.95026","2413.17"
"23.60000","1.96648","2428.44"
"23.80000","1.98322","2445.29"
"24.00000","2.00035","2461.51"
"24.20000","2.01678","2477.55"
"24.40000","2.03341","2493.61"
"24.60000","2.05034","2509.48"
"24.80000","2.06697","2525.04"
"25.00000","2.08340","2540.97"
"25.20000","2.10014","2557.39"
"25.40000","2.11717","2571.69"
"25.60000","2.13340","2587.81"
"25.80000","2.15003","2602.83"
"26.00000","2.16706","2619.25"
"26.20000","2.18329","2634.71"
"26.40000","2.19982","2651.01"
"26.60000","2.21686","2666.54"
"26.80000","2.23359","2682.8"
"27.00000","2.25002","2698.61"
"27.20000","2.26685","2714.77"
"27.40000","2.28368","2730.86"
"27.60000","2.30051","2746.06"
"27.80000","2.31664","2761.42"
"28.00000","2.33388","2777.73"
"28.20000","2.35021","2792.57"
"28.40000","2.36674","2808.71"
"28.60000","2.38377","2825.46"
"28.80000","2.40020","2841.14"
"29.00000","2.41673","2856.66"
"29.20000","2.43316","2872.29"
"29.40000","2.45009","2886.58"
"29.60000","2.46682","2903.71"
"29.80000","2.48325","2918.59"
"30.00000","2.50019","2934.78"
"30.20000","2.51712","2950.27"
"30.40000","2.53325","2966.54"
"30.60000","2.55008","2981.03"
"30.80000","2.56721","2996.96"
"31.00000","2.58344","3011.94"
"31.20000","2.60007","3027.3"
"31.40000","2.61701","3042.89"
"31.60000","2.63364","3058.6"
"31.80000","2.64986","3072.53"
"32.00000","2.66660","3087.97"
"32.20000","2.68323","3103.74"
"32.40000","2.70006","3119.75"
"32.60000","2.71639","3134.94"
"32.80000","2.73372","3150.24"
"33.00000","2.75056","3164.73"
"33.20000","2.76658","3179.66"
"33.40000","2.78372","3195.52"
"33.60000","2.80025","3211.01"
"33.80000","2.81668","3225.23"
"34.00000","2.83341","3241.65"
"34.20000","2.85044","3257.87"
"34.40000","2.86677","3271.64"
"34.60000","2.88340","3286.73"
"34.80000","2.90014","3301.97"
"35.00000","2.91717","3316.59"
"35.20000","2.93309","3330.89"
"35.40000","2.95013","3346.32"
"35.60000","2.96706","3361.62"
"35.80000","2.98319","3375.46"
"36.00000","3.00002","3390.04"
"36.20000","3.01706","3405.55"
"36.40000","3.03369","3419.31"
"36.60000","3.04991","3433.93"
"36.80000","3.06675","3448.21"
"37.00000","3.08378","3463.62"
"37.20000","3.10001","3479.32"
"37.40000","3.11664","3493.37"
"37.60000","3.13367","3509.55"
"37.80000","3.15031","3523.33"
"38.00000","3.16643","3537.6"
"38.20000","3.18397","3552.46"
"38.40000","3.20020","3565.81"
"38.60000","3.21683","3580.36"
"38.80000","3.23356","3593"
"39.00000","3.25039","3608.52"
"39.20000","3.26652","3621.71"
"39.40000","3.28325","3635.97"
"39.60000","3.30059","3650.77"
"39.80000","3.31702","3664.56"
"40.00000","3.33314","3677.31"
"40.20000","3.35028","3691.9"
"40.40000","3.36691","3705.33"
"40.60000","3.38334","3718.55"
"40.80000","3.40017","3732.57"
"41.00000","3.41701","3746.62"
"41.20000","3.43354","3759.35"
"41.40000","3.44996","3772.59"
"41.60000","3.46680","3726.98"
"41.80000","3.48383","3747.13"
"42.00000","3.50006","3763.86"
"42.20000","3.51679","3779.29"
"42.40000","3.53352","3793.04"
"42.60000","3.55015","3809.48"
"42.80000","3.56648","3825.57"
"43.00000","3.58372","3840.45"
"43.20000","3.59995","3855.76"
"43.40000","3.61668","3869.52"
"43.60000","3.63361","3883.96"
"43.80000","3.65044","3898.67"
"44.00000","3.66667","3911.64"
"44.20000","3.68330","3926.34"
"44.40000","3.70034","3939.19"
"44.60000","3.71717","3952.81"
"44.80000","3.73330","3965.17"
"45.00000","3.75043","3978.93"
"45.20000","3.76696","3990.41"
"45.40000","3.78309","4001.4"
"45.60000","3.80002","4014.2"
"45.80000","3.81695","4026.12"
"46.00000","3.83338","4037.53"
"46.20000","3.85012","4049.23"
"46.40000","3.86675","4061.02"
"46.60000","3.88378","4072.98"
"46.80000","3.89981","4083.93"
"47.00000","3.91694","4094.58"
"47.20000","3.93377","4072"
"47.40000","3.95010","4080.13"
"47.60000","3.96663","4093.92"
"47.80000","3.98377","4106.81"
"48.00000","3.99999","4117.73"
"48.20000","4.01653","4127.69"
"48.40000","4.03346","4139.86"
"48.60000","4.05039","4152.69"
"48.80000","4.06642","4161.35"
"49.00000","4.08325","4171.81"
"49.20000","4.10059","4180.99"
"49.40000","4.11692","4189.14"
"49.60000","4.13314","4196.38"
"49.80000","4.15058","4205.1"
"50.00000","4.16691","4211.34"
"50.20000","4.18334","4218.19"
"50.40000","4.20027","4222.84"
"50.60000","4.21721","4228.55"
"50.80000","4.23313","4230.87"
"51.00000","4.25006","4233.67"
"51.20000","4.26680","4235.72"
"51.40000","4.28373","4236.22"
"51.60000","4.29976","4234.34"
"51.80000","4.31709","4232.81"
"52.00000","4.33372","4229.67"
"52.20000","4.34995","4224.98"
"52.40000","4.36678","4218.21"
"52.60000","4.38372","4208.78"
"52.80000","4.40025","4195.23"
"53.00000","4.41688","4176.26"
"53.20000","4.43371","4149.4"
"53.40000","4.45024","4103.3"
"53.56600","4.46385","3692.21"
"53.57400","4.46465","2897.98"
"53.57800","4.46506","2438.96"