File: Data_Processing/Tensile-Data/Sequence_8.csv
General : Start date,"10/22/2024 9:32 AM"
General : End date,"10/22/2024 9:33 AM"
Specimen notes : Specimen note 1,"blue, 200, batch 5, seq 8"
Test : Rate 1,"5.00000",mm/min

Time,Extension,Load
(s),(mm),(N)
"0.00000","0.00000","-0.37047"
"0.20000","0.00786","7.29710"
"0.40000","0.03175","51.79268"
"0.60000","0.04939","81.60658"
"0.80000","0.06683","110.88"
"1.00000","0.08336","138.297"
"1.20000","0.10029","167.943"
"1.40000","0.11722","186.02"
"1.60000","0.13325","212.809"
"1.80000","0.14988","243.18"
"2.00000","0.16691","273.07"
"2.20000","0.18355","301.447"
"2.40000","0.19987","329.574"
"2.60000","0.21711","359.633"
"2.80000","0.23344","388.025"
"3.00000","0.24997","416.968"
"3.20000","0.26670","445.302"
"3.40000","0.28383","475.388"
"3.60000","0.30006","503.68"
"3.80000","0.31669","532.299"
"4.00000","0.33373","561.016"
"4.20000","0.35046","589.763"
"4.40000","0.36649","617.512"
"4.60000","0.38352","647.564"
"4.80000","0.40025","676.319"
"5.00000","0.41628","703.701"
"5.20000","0.43341","733.056"
"5.40000","0.45035","762.319"
"5.60000","0.46698","789.222"
"5.80000","0.48351","817.585"
"6.00000","0.50024","845.921"
"6.20000","0.51717","874.833"
"6.40000","0.53310","900.696"
"6.60000","0.55023","929.246"
"6.80000","0.56696","958.147"
"7.00000","0.58339","984.949"
"7.20000","0.59992","1012.72"
"7.40000","0.61706","1040.39"
"7.60000","0.63349","1067.95"
"7.80000","0.65012","1095.4"
"8.00000","0.66695","1122.67"
"8.20000","0.68328","1149.98"
"8.40000","0.69981","1176.23"
"8.60000","0.71644","1203.47"
"8.80000","0.73368","1231.75"
"9.00000","0.75001","1257.38"
"9.20000","0.76654","1284.35"
"9.40000","0.78357","1311.73"
"9.60000","0.80030","1339.05"
"9.80000","0.81653","1363.02"
"10.00000","0.83346","1389.93"
"10.20000","0.85050","1417.79"
"10.40000","0.86662","1443.53"
"10.60000","0.88346","1468.98"
"10.80000","0.90009","1496.15"
"11.00000","0.91712","1523.23"
"11.20000","0.93325","1548.24"
"11.40000","0.95018","1574.85"
"11.60000","0.96671","1600.61"
"11.80000","0.98324","1626.45"
"12.00000","0.99977","1650.92"
"12.20000","1.01711","1678.55"
"12.40000","1.03354","1703.94"
"12.60000","1.04997","1729.12"
"12.80000","1.06690","1754.09"
"13.00000","1.08353","1779.89"
"13.20000","1.09986","1803.88"
"13.40000","1.11659","1827.61"
"13.60000","1.13363","1852.72"
"13.80000","1.15016","1878.05"
"14.00000","1.16659","1901.14"
"14.20000","1.18382","1927.06"
"14.40000","1.20015","1951.76"
"14.60000","1.21648","1974.48"
"14.80000","1.23351","1998.12"
"15.00000","1.25034","2024.18"
"15.20000","1.26657","2048.21"
"15.40000","1.28330","2071.39"
"15.60000","1.30004","2096.75"
"15.80000","1.31707","2120.37"
"16.00000","1.33310","2143.2"
"16.20000","1.35033","2167.76"
"16.40000","1.36686","2190.12"
"16.60000","1.38319","2213.46"
"16.80000","1.40012","2237.86"
"17.00000","1.41706","2261.84"
"17.20000","1.43339","2284.84"
"17.40000","1.44982","2307.38"
"17.60000","1.46695","2330.98"
"17.80000","1.48358","2349.39"
"18.00000","1.49971","2371.57"
"18.20000","1.51674","2394.83"
"18.40000","1.53368","2417.29"
"18.60000","1.54990","2437.01"
"18.80000","1.56653","2457.48"
"19.00000","1.58397","2480.05"
"19.20000","1.60010","2502.07"
"19.40000","1.61643","2524.71"
"19.60000","1.63346","2547.81"
"19.80000","1.65040","2570.66"
"20.00000","1.66662","2592.04"
"20.20000","1.68346","2613.7"
"20.40000","1.70019","2636.68"
"20.60000","1.71682","2658.84"
"20.80000","1.73315","2679.08"
"21.00000","1.75018","2701.18"
"21.20000","1.76671","2722.58"
"21.40000","1.78304","2743.4"
"21.60000","1.80028","2754.94"
"21.80000","1.81681","2776.34"
"22.00000","1.83364","2797.67"
"22.20000","1.85017","2819.39"
"22.40000","1.86690","2839.89"
"22.60000","1.88343","2859.86"
"22.80000","1.89996","2880.25"
"23.00000","1.91679","2900.93"
"23.20000","1.93363","2923.08"
"23.40000","1.94985","2942.49"
"23.60000","1.96669","2962.56"
"23.80000","1.98352","2983.08"
"24.00000","1.99985","3003.15"
"24.20000","2.01658","3021.23"
"24.40000","2.03351","3040.22"
"24.60000","2.05024","3057.73"
"24.80000","2.06657","3076.88"
"25.00000","2.08330","3095.71"
"25.20000","2.10054","3115.81"
"25.40000","2.11667","3135.14"
"25.60000","2.13330","3152.97"
"25.80000","2.15023","3171.76"
"26.00000","2.16686","3190.28"
"26.20000","2.18309","3207.63"
"26.40000","2.20043","3226.85"
"26.60000","2.21665","3243.17"
"26.80000","2.23328","3259.01"
"27.00000","2.24992","3276.83"
"27.20000","2.26675","3295.66"
"27.40000","2.28348","3311.54"
"27.60000","2.29981","3327.55"
"27.80000","2.31704","3344.93"
"28.00000","2.33388","3161.79"
"28.20000","2.34980","3180.01"
"28.40000","2.36684","3196.7"
"28.60000","2.38367","3202.55"
"28.80000","2.39990","3219.89"
"29.00000","2.41663","3237.65"
"29.20000","2.43356","3254.94"
"29.40000","2.45029","3271.13"
"29.60000","2.46642","3287.76"
"29.80000","2.48345","3305.87"
"30.00000","2.50059","3322.3"
"30.20000","2.51641","3337.34"
"30.40000","2.53335","3354.72"
"30.60000","2.55018","3371.07"
"30.80000","2.56671","3241.63"
"31.00000","2.58324","3255.8"
"31.20000","2.60058","3272.61"
"31.40000","2.61680","3288.02"
"31.60000","2.63344","3304.4"
"31.80000","2.65017","3320.07"
"32.00000","2.66700","3336.09"
"32.20000","2.68303","3351.08"
"32.40000","2.69976","3365.8"
"32.60000","2.71709","3380.95"
"32.80000","2.73372","3394.61"
"33.00000","2.74985","3408.27"
"33.20000","2.76709","3423.46"
"33.40000","2.78382","3437.55"
"33.60000","2.79964","3448.76"
"33.80000","2.81668","3463.02"
"34.00000","2.83361","3477.85"
"34.20000","2.85004","3490.1"
"34.40000","2.86677","3501.72"
"34.60000","2.88330","3514.47"
"34.80000","2.90024","3527.86"
"35.00000","2.91626","3538.12"
"35.20000","2.93350","3551.24"
"35.40000","2.95023","3562.81"
"35.60000","2.96676","3574.24"
"35.80000","2.98339","3584.37"
"36.00000","3.00053","3597.15"
"36.20000","3.01685","3606.33"
"36.40000","3.03349","3616.83"
"36.60000","3.05022","3627.34"
"36.80000","3.06685","3636.8"
"37.00000","3.08318","3645.69"
"37.20000","3.09971","3653.84"
"37.40000","3.11714","3663.62"
"37.60000","3.13337","3672.08"
"37.80000","3.14960","3679.01"
"38.00000","3.16684","3687.72"
"38.20000","3.18357","3695.25"
"38.40000","3.20010","3703.03"
"38.60000","3.21673","3710.38"
"38.80000","3.23386","3717.08"
"39.00000","3.25009","3723.18"
"39.20000","3.26662","3727.2"
"39.40000","3.28335","3732.82"
"39.60000","3.30039","3738.56"
"39.80000","3.31631","3740.85"
"40.00000","3.33355","3743.92"
"40.20000","3.35008","3746.18"
"40.40000","3.36631","3745.7"
"40.60000","3.38354","3744.14"
"40.80000","3.40027","3737.39"
"41.00000","3.41711","3704.16"
"41.20000","3.43354","3424.83"
"41.40000","3.45057","3330.17"
"41.60000","3.46700","3249.86"
"41.66800","3.47254","2715.14"
"41.67600","3.47325","2027.78"
"41.67800","3.47355","1848.53"