File: Data_Processing/Tensile-Data/Sequence_58.csv
General : Start date,"11/5/2024 8:50 AM"
General : End date,"11/5/2024 8:51 AM"
Specimen notes : Specimen note 1,"Day 3, blue, 230, batch 18, seq 58"
Test : Rate 1,"5.00000",mm/min

Time,Extension,Load
(s),(mm),(N)
"0.00000","0.00000","0.04839"
"0.20000","0.01028","11.30294"
"0.40000","0.03215","55.31901"
"0.60000","0.04999","87.44352"
"0.80000","0.06683","115.722"
"1.00000","0.08336","144.939"
"1.20000","0.10059","173.346"
"1.40000","0.11722","200.298"
"1.60000","0.13345","227.235"
"1.80000","0.15028","253.086"
"2.00000","0.16732","279.988"
"2.20000","0.18344","307.292"
"2.40000","0.20008","333.024"
"2.60000","0.21711","360.492"
"2.80000","0.23364","387.884"
"3.00000","0.24977","415.15"
"3.20000","0.26710","441.761"
"3.40000","0.28363","466.564"
"3.60000","0.30016","492.823"
"3.80000","0.31690","517.979"
"4.00000","0.33383","544.398"
"4.20000","0.35046","569.958"
"4.40000","0.36679","595.49"
"4.60000","0.38372","619.849"
"4.80000","0.40035","645.811"
"5.00000","0.41658","669.325"
"5.20000","0.43361","693.758"
"5.40000","0.45055","718.557"
"5.60000","0.46647","740.848"
"5.80000","0.48351","767.342"
"6.00000","0.50024","789.189"
"6.20000","0.51677","813.593"
"6.40000","0.53340","836.29"
"6.60000","0.55043","860.622"
"6.80000","0.56717","882.876"
"7.00000","0.58360","905.444"
"7.20000","0.60043","927.282"
"7.40000","0.61706","949.104"
"7.60000","0.63359","969.507"
"7.80000","0.64992","990.331"
"8.00000","0.66695","1011.82"
"8.20000","0.68368","1032.99"
"8.40000","0.69991","1052.28"
"8.60000","0.71705","1073.41"
"8.80000","0.73327","1093.19"
"9.00000","0.75031","1113.84"
"9.20000","0.76674","1133.25"
"9.40000","0.78387","1154.14"
"9.60000","0.80040","1173.54"
"9.80000","0.81663","1192.82"
"10.00000","0.83356","1212.09"
"10.20000","0.85050","1232.08"
"10.40000","0.86662","1250.17"
"10.60000","0.88336","1269.1"
"10.80000","0.90029","1288.28"
"11.00000","0.91662","1305.31"
"11.20000","0.93315","1322.52"
"11.40000","0.95008","1341.26"
"11.60000","0.96701","1359.56"
"11.80000","0.98344","1376.7"
"12.00000","1.00018","1393.84"
"12.20000","1.01721","1410.37"
"12.40000","1.03354","1425.63"
"12.60000","1.05007","1442.43"
"12.80000","1.06700","1458.5"
"13.00000","1.08373","1476.27"
"13.20000","1.09986","1491.63"
"13.40000","1.11699","1509.56"
"13.60000","1.13353","1524.84"
"13.80000","1.15036","1541.24"
"14.00000","1.16669","1556.89"
"14.20000","1.18372","1573.82"
"14.40000","1.20015","1589.09"
"14.60000","1.21648","1606.1"
"14.80000","1.23371","1622.16"
"15.00000","1.25034","1638.84"
"15.20000","1.26677","1655.26"
"15.40000","1.28371","1671.36"
"15.60000","1.30054","1688.54"
"15.80000","1.31677","1703.85"
"16.00000","1.33340","1720.06"
"16.20000","1.35043","1737.29"
"16.40000","1.36696","1752.88"
"16.60000","1.38319","1769.47"
"16.80000","1.40033","1787.03"
"17.00000","1.41726","1803.52"
"17.20000","1.43308","1819.56"
"17.40000","1.45022","1835.97"
"17.60000","1.46715","1853.2"
"17.80000","1.48368","1867.7"
"18.00000","1.50011","1883.01"
"18.20000","1.51715","1898.88"
"18.40000","1.53358","1915.08"
"18.60000","1.55021","1930.36"
"18.80000","1.56684","1946.53"
"19.00000","1.58367","1961.06"
"19.20000","1.60020","1977.31"
"19.40000","1.61663","1993.55"
"19.60000","1.63376","2010.02"
"19.80000","1.65019","2024.84"
"20.00000","1.66652","2040.42"
"20.20000","1.68356","2057.45"
"20.40000","1.70049","2073.85"
"20.60000","1.71672","2089"
"20.80000","1.73365","2105.66"
"21.00000","1.75038","2120.31"
"21.20000","1.76681","2135.46"
"21.40000","1.78314","2150.79"
"21.60000","1.80007","2165.84"
"21.80000","1.81711","2182.14"
"22.00000","1.83313","2197.2"
"22.20000","1.85047","2213.73"
"22.40000","1.86700","2229.11"
"22.60000","1.88353","2245.16"
"22.80000","1.90006","2260.33"
"23.00000","1.91699","2275.81"
"23.20000","1.93363","2292.17"
"23.40000","1.95005","2306.35"
"23.60000","1.96689","2323.99"
"23.80000","1.98362","2339.64"
"24.00000","2.00015","2354.98"
"24.20000","2.01668","2372.08"
"24.40000","2.03391","2387.54"
"24.60000","2.05014","2403.42"
"24.80000","2.06687","2418.02"
"25.00000","2.08351","2433.69"
"25.20000","2.10044","2449.73"
"25.40000","2.11657","2465.03"
"25.60000","2.13350","2481.79"
"25.80000","2.15043","2497.74"
"26.00000","2.16686","2512.23"
"26.20000","2.18329","2528.23"
"26.40000","2.20043","2545.03"
"26.60000","2.21716","2558.13"
"26.80000","2.23318","2574.63"
"27.00000","2.25032","2589.74"
"27.20000","2.26695","2605.75"
"27.40000","2.28318","2620.48"
"27.60000","2.30021","2636.57"
"27.80000","2.31684","2652.58"
"28.00000","2.33378","2668.11"
"28.20000","2.35000","2682.34"
"28.40000","2.36724","2699.41"
"28.60000","2.38377","2712.74"
"28.80000","2.40000","2728.22"
"29.00000","2.41683","2742.7"
"29.20000","2.43396","2757.43"
"29.40000","2.44999","2772.77"
"29.60000","2.46682","2786.97"
"29.80000","2.48376","2802.11"
"30.00000","2.50009","2816.29"
"30.20000","2.51641","2830.17"
"30.40000","2.53355","2845.35"
"30.60000","2.55048","2861.15"
"30.80000","2.56671","2874.59"
"31.00000","2.58344","2889.66"
"31.20000","2.60048","2905.37"
"31.40000","2.61691","2919.37"
"31.60000","2.63323","2933.5"
"31.80000","2.65067","2949.36"
"32.00000","2.66700","2963.66"
"32.20000","2.68323","2978.45"
"32.40000","2.70026","2991.93"
"32.60000","2.71669","3006.72"
"32.80000","2.73342","3022.35"
"33.00000","2.74975","3035.25"
"33.20000","2.76709","3051.12"
"33.40000","2.78362","3065.2"
"33.60000","2.79995","3080.7"
"33.80000","2.81698","3094.85"
"34.00000","2.83371","3110.43"
"34.20000","2.85004","3124.27"
"34.40000","2.86677","3139.52"
"34.60000","2.88371","3153.46"
"34.80000","2.90024","3167.54"
"35.00000","2.91667","3181.27"
"35.20000","2.93380","3196.27"
"35.40000","2.95063","3210.65"
"35.60000","2.96676","3223.44"
"35.80000","2.98359","3238.8"
"36.00000","3.00032","3253.85"
"36.20000","3.01675","3268.71"
"36.40000","3.03328","3283.57"
"36.60000","3.05042","3297.82"
"36.80000","3.06695","3312.73"
"37.00000","3.08338","3326.84"
"37.20000","3.10041","3340.94"
"37.40000","3.11714","3356.38"
"37.60000","3.13367","3368.03"
"37.80000","3.14990","3383.44"
"38.00000","3.16724","3397.1"
"38.20000","3.18357","3410.62"
"38.40000","3.19959","3422.89"
"38.60000","3.21693","3439.05"
"38.80000","3.23376","3451.94"
"39.00000","3.24999","3466.62"
"39.20000","3.26702","3480.83"
"39.40000","3.28386","3493.75"
"39.60000","3.30008","3507.42"
"39.80000","3.31672","3520.53"
"40.00000","3.33375","3534.49"
"40.20000","3.35058","3548.17"
"40.40000","3.36661","3560.75"
"40.60000","3.38364","3574.75"
"40.80000","3.40058","3587.02"
"41.00000","3.41650","3599.27"
"41.20000","3.43354","3612.28"
"41.40000","3.45047","3623.97"
"41.60000","3.46700","3637.2"
"41.80000","3.48323","3649.68"
"42.00000","3.50036","3662.41"
"42.20000","3.51709","3674.85"
"42.40000","3.53352","3687.33"
"42.60000","3.55015","3697.82"
"42.80000","3.56719","3711.19"
"43.00000","3.58352","3723.04"
"43.20000","3.60005","3733.78"
"43.40000","3.61718","3745.45"
"43.60000","3.63331","3755.75"
"43.80000","3.64974","3766.19"
"44.00000","3.66697","3777.37"
"44.20000","3.68381","3787.87"
"44.40000","3.69983","3797.39"
"44.60000","3.71677","3806.66"
"44.80000","3.73380","3817.64"
"45.00000","3.75043","3824.98"
"45.20000","3.76666","3833.14"
"45.40000","3.78379","3841.66"
"45.60000","3.80042","3848.94"
"45.80000","3.81675","3855.71"
"46.00000","3.83369","3861.61"
"46.20000","3.85042","3867.3"
"46.40000","3.86695","3872.29"
"46.60000","3.88348","3875.43"
"46.80000","3.90011","3877.53"
"47.00000","3.91694","3880.41"
"47.20000","3.93347","3878.72"
"47.40000","3.95030","3877.61"
"47.60000","3.96704","3872.2"
"47.80000","3.98346","3860.01"
"48.00000","3.99999","3840.54"
"48.20000","4.01733","3796.45"
"48.32200","4.02731","3399.76"
"48.33000","4.02812","2653.11"
"48.33400","4.02852","2225.96"