File: Data_Processing/Tensile-Data/Sequence_38.csv
General : Start date,"10/29/2024 10:40 AM"
General : End date,"10/29/2024 10:41 AM"
Specimen notes : Specimen note 1,"Day 2, black, 230, batch 6, seq 38"
Test : Rate 1,"5.00000",mm/min

Time,Extension,Load
(s),(mm),(N)
"0.00000","0.00000","-0.09266"
"0.20000","0.01078","12.67566"
"0.40000","0.03235","54.76661"
"0.60000","0.04959","85.88350"
"0.80000","0.06652","114.525"
"1.00000","0.08386","143.089"
"1.20000","0.10019","172.407"
"1.40000","0.11672","199.043"
"1.60000","0.13375","225.838"
"1.80000","0.15038","253.886"
"2.00000","0.16661","280.229"
"2.20000","0.18355","308.676"
"2.40000","0.20008","336.245"
"2.60000","0.21650","362.957"
"2.80000","0.23324","390.443"
"3.00000","0.25027","419.379"
"3.20000","0.26700","445.816"
"3.40000","0.28333","472.967"
"3.60000","0.30037","499.813"
"3.80000","0.31710","526.883"
"4.00000","0.33343","552.297"
"4.20000","0.34996","578.215"
"4.40000","0.36699","606.416"
"4.60000","0.38332","632.092"
"4.80000","0.39975","656.949"
"5.00000","0.41688","684.299"
"5.20000","0.43361","709.594"
"5.40000","0.44994","734.665"
"5.60000","0.46667","760.578"
"5.80000","0.48351","786.08"
"6.00000","0.50014","810.097"
"6.20000","0.51667","834.877"
"6.40000","0.53360","861.028"
"6.60000","0.55053","884.998"
"6.80000","0.56656","908.843"
"7.00000","0.58339","933.432"
"7.20000","0.60023","956.994"
"7.40000","0.61666","980.088"
"7.60000","0.63319","1002.6"
"7.80000","0.65012","1025.09"
"8.00000","0.66665","1048.12"
"8.20000","0.68288","1070.17"
"8.40000","0.70031","1093.4"
"8.60000","0.71644","1113.84"
"8.80000","0.73358","1137.54"
"9.00000","0.75021","1159.55"
"9.20000","0.76714","1181.84"
"9.40000","0.78337","1202.62"
"9.60000","0.79990","1223.91"
"9.80000","0.81703","1246.4"
"10.00000","0.83366","1267.35"
"10.20000","0.84979","1289.01"
"10.40000","0.86693","1309.88"
"10.60000","0.88386","1331.53"
"10.80000","0.89968","1351.07"
"11.00000","0.91652","1372.66"
"11.20000","0.93355","1392.4"
"11.40000","0.94998","1412.4"
"11.60000","0.96641","1432.13"
"11.80000","0.98344","1452.53"
"12.00000","1.00068","1472.05"
"12.20000","1.01660","1488.42"
"12.40000","1.03354","1507.92"
"12.60000","1.05037","1525.6"
"12.80000","1.06670","1543.32"
"13.00000","1.08333","1561.31"
"13.20000","1.10046","1580.54"
"13.40000","1.11659","1598"
"13.60000","1.13302","1616.55"
"13.80000","1.15016","1635.66"
"14.00000","1.16669","1652.95"
"14.20000","1.18312","1670.22"
"14.40000","1.19995","1686.11"
"14.60000","1.21708","1704.69"
"14.80000","1.23361","1721.21"
"15.00000","1.24984","1737.43"
"15.20000","1.26718","1754.29"
"15.40000","1.28351","1772.22"
"15.60000","1.29983","1788.84"
"15.80000","1.31687","1805.41"
"16.00000","1.33360","1823.23"
"16.20000","1.34993","1839.5"
"16.40000","1.36676","1857.23"
"16.60000","1.38339","1874.15"
"16.80000","1.40053","1891.96"
"17.00000","1.41635","1906.87"
"17.20000","1.43349","1924.43"
"17.40000","1.45032","1941.1"
"17.60000","1.46675","1958.26"
"17.80000","1.48328","1974.25"
"18.00000","1.50041","1992.08"
"18.20000","1.51684","2008.18"
"18.40000","1.53347","2025.93"
"18.60000","1.55011","2041.62"
"18.80000","1.56694","2059.56"
"19.00000","1.58306","2074.67"
"19.20000","1.60000","2092.42"
"19.40000","1.61713","2109.69"
"19.60000","1.63356","2126.04"
"19.80000","1.64969","2140.94"
"20.00000","1.66713","2158.44"
"20.20000","1.68356","2174.42"
"20.40000","1.69988","2190.33"
"20.60000","1.71692","2207.63"
"20.80000","1.73385","2225.08"
"21.00000","1.75008","2240.69"
"21.20000","1.76651","2257.02"
"21.40000","1.78354","2274.17"
"21.60000","1.80038","2291.24"
"21.80000","1.81640","2306.49"
"22.00000","1.83344","2323.54"
"22.20000","1.85027","2339.36"
"22.40000","1.86619","2354.28"
"22.60000","1.88363","2371.71"
"22.80000","1.90036","2388.3"
"23.00000","1.91679","2404.89"
"23.20000","1.93332","2420.24"
"23.40000","1.95046","2437.45"
"23.60000","1.96709","2453.85"
"23.80000","1.98311","2469.59"
"24.00000","1.99995","2485.06"
"24.20000","2.01708","2501.74"
"24.40000","2.03311","2518.07"
"24.60000","2.04984","2534.05"
"24.80000","2.06708","2550.6"
"25.00000","2.08330","2566.08"
"25.20000","2.09983","2581.4"
"25.40000","2.11707","2597.53"
"25.60000","2.13370","2613.64"
"25.80000","2.15003","2628.76"
"26.00000","2.16696","2645.73"
"26.20000","2.18349","2661.38"
"26.40000","2.20022","2678.06"
"26.60000","2.21635","2693.3"
"26.80000","2.23359","2709.62"
"27.00000","2.25022","2725.88"
"27.20000","2.26634","2741.47"
"27.40000","2.28358","2757.7"
"27.60000","2.30011","2773.61"
"27.80000","2.31674","2788.91"
"28.00000","2.33347","2804.29"
"28.20000","2.35031","2820.99"
"28.40000","2.36674","2836.75"
"28.60000","2.38327","2852.07"
"28.80000","2.40010","2868.31"
"29.00000","2.41713","2884.71"
"29.20000","2.43316","2899.47"
"29.40000","2.45009","2916.17"
"29.60000","2.46703","2932.12"
"29.80000","2.48325","2946.66"
"30.00000","2.49988","2961.97"
"30.20000","2.51682","2977.96"
"30.40000","2.53355","2993.23"
"30.60000","2.54998","3007.49"
"30.80000","2.56671","3023.02"
"31.00000","2.58374","3039.46"
"31.20000","2.60027","3054.46"
"31.40000","2.61670","3070.98"
"31.60000","2.63364","3086.84"
"31.80000","2.65017","3101.36"
"32.00000","2.66639","3116.65"
"32.20000","2.68373","3132.94"
"32.40000","2.69986","3146.77"
"32.60000","2.71659","3161.91"
"32.80000","2.73352","3178.48"
"33.00000","2.75015","3193.35"
"33.20000","2.76679","3207.73"
"33.40000","2.78311","3223.03"
"33.60000","2.80025","3239.18"
"33.80000","2.81688","3253.63"
"34.00000","2.83301","3268.25"
"34.20000","2.85034","3284.5"
"34.40000","2.86718","3298.59"
"34.60000","2.88320","3313.26"
"34.80000","2.90003","3327.43"
"35.00000","2.91697","3342.49"
"35.20000","2.93360","3356.76"
"35.40000","2.94973","3371.15"
"35.60000","2.96656","3386.11"
"35.80000","2.98349","3400.58"
"36.00000","2.99982","3414.88"
"36.20000","3.01685","3429.32"
"36.40000","3.03359","3444.54"
"36.60000","3.05022","3458.58"
"36.80000","3.06644","3472.59"
"37.00000","3.08388","3488.87"
"37.20000","3.10001","3502.11"
"37.40000","3.11674","3516.39"
"37.60000","3.13367","3531.33"
"37.80000","3.15031","3545.3"
"38.00000","3.16653","3557.82"
"38.20000","3.18306","3572.49"
"38.40000","3.20030","3587.2"
"38.60000","3.21693","3600.22"
"38.80000","3.23306","3612.84"
"39.00000","3.25029","3626.95"
"39.20000","3.26702","3641.04"
"39.40000","3.28305","3653.7"
"39.60000","3.30018","3667.95"
"39.80000","3.31702","3680.17"
"40.00000","3.33345","3694.86"
"40.20000","3.34998","3706.32"
"40.40000","3.36661","3719.55"
"40.60000","3.38384","3733.54"
"40.80000","3.39977","3745.02"
"41.00000","3.41680","3758.48"
"41.20000","3.43354","3770.93"
"41.40000","3.44996","3783.02"
"41.60000","3.46670","3794.87"
"41.80000","3.48383","3807.52"
"42.00000","3.50026","3818.5"
"42.20000","3.51679","3829.3"
"42.40000","3.53372","3840.05"
"42.60000","3.55025","3851.75"
"42.80000","3.56668","3860.98"
"43.00000","3.58352","3871.61"
"43.20000","3.60035","3880.64"
"43.40000","3.61678","3889.36"
"43.60000","3.63311","3895.47"
"43.80000","3.65034","3904.25"
"44.00000","3.66697","3909.63"
"44.20000","3.68350","3913.24"
"44.40000","3.70013","3916.04"
"44.60000","3.71687","3917.64"
"44.80000","3.73319","3917.37"
"45.00000","3.75013","3913.89"
"45.20000","3.76676","3910.02"
"45.40000","3.78369","3903.97"
"45.60000","3.79972","3892.27"
"45.80000","3.81706","3881.48"
"46.00000","3.83359","3863.08"
"46.20000","3.84991","3838.08"
"46.40000","3.86665","3800.33"
"46.60000","3.88378","3709.87"
"46.64600","3.88751","3053.19"
"46.65400","3.88832","2241.72"