File: Data_Processing/Tensile-Data/Sequence_33.csv
General : Start date,"10/29/2024 10:27 AM"
General : End date,"10/29/2024 10:28 AM"
Specimen notes : Specimen note 1,"Day 2, blue, 215, batch 4, seq 33"
Test : Rate 1,"5.00000",mm/min

Time,Extension,Load
(s),(mm),(N)
"0.00000","0.00000","0.32550"
"0.20000","0.00947","10.69310"
"0.40000","0.03235","53.55503"
"0.60000","0.04959","80.60544"
"0.80000","0.06642","106.789"
"1.00000","0.08356","135.531"
"1.20000","0.10019","162.028"
"1.40000","0.11682","189.038"
"1.60000","0.13355","217.73"
"1.80000","0.15059","244.22"
"2.00000","0.16691","270.421"
"2.20000","0.18324","294.943"
"2.40000","0.20038","323.361"
"2.60000","0.21691","349.296"
"2.80000","0.23303","373.762"
"3.00000","0.25017","400.682"
"3.20000","0.26690","425.571"
"3.40000","0.28333","450.555"
"3.60000","0.29986","475.212"
"3.80000","0.31700","499.001"
"4.00000","0.33343","523.606"
"4.20000","0.35006","548.536"
"4.40000","0.36699","572.669"
"4.60000","0.38392","597.103"
"4.80000","0.39995","620.738"
"5.00000","0.41688","643.96"
"5.20000","0.43341","666.863"
"5.40000","0.45004","688.701"
"5.60000","0.46657","709.88"
"5.80000","0.48361","732.568"
"6.00000","0.50014","755.231"
"6.20000","0.51626","775.776"
"6.40000","0.53350","797.621"
"6.60000","0.54983","819.617"
"6.80000","0.56686","842.003"
"7.00000","0.58349","862.451"
"7.20000","0.60053","883.423"
"7.40000","0.61696","902.683"
"7.60000","0.63329","922.297"
"7.80000","0.65012","941.088"
"8.00000","0.66685","961.123"
"8.20000","0.68348","981.17"
"8.40000","0.69991","1000.82"
"8.60000","0.71695","1020.65"
"8.80000","0.73327","1038.37"
"9.00000","0.74980","1055.51"
"9.20000","0.76684","1073.01"
"9.40000","0.78347","1090.16"
"9.60000","0.79990","1105.33"
"9.80000","0.81673","1122.43"
"10.00000","0.83387","1140.45"
"10.20000","0.85009","1155.64"
"10.40000","0.86672","1172.45"
"10.60000","0.88366","1189.06"
"10.80000","0.90029","1206.08"
"11.00000","0.91621","1221.36"
"11.20000","0.93355","1239.76"
"11.40000","0.95028","1255.98"
"11.60000","0.96641","1271.83"
"11.80000","0.98324","1289.53"
"12.00000","1.00018","1305.13"
"12.20000","1.01660","1319.95"
"12.40000","1.03324","1337.24"
"12.60000","1.05037","1352.58"
"12.80000","1.06700","1368.5"
"13.00000","1.08323","1381.23"
"13.20000","1.10006","1397.42"
"13.40000","1.11710","1412.99"
"13.60000","1.13332","1427.31"
"13.80000","1.14995","1441.36"
"14.00000","1.16709","1457.55"
"14.20000","1.18352","1472.41"
"14.40000","1.19965","1485.06"
"14.60000","1.21678","1499.89"
"14.80000","1.23392","1514.7"
"15.00000","1.24974","1528.61"
"15.20000","1.26657","1544.63"
"15.40000","1.28361","1560.15"
"15.60000","1.30014","1574.95"
"15.80000","1.31657","1589.97"
"16.00000","1.33380","1605.13"
"16.20000","1.35003","1620.88"
"16.40000","1.36666","1635.43"
"16.60000","1.38339","1650.14"
"16.80000","1.40033","1665.94"
"17.00000","1.41655","1680.56"
"17.20000","1.43298","1695.64"
"17.40000","1.45032","1711.53"
"17.60000","1.46695","1725.66"
"17.80000","1.48308","1740.12"
"18.00000","1.50051","1756.81"
"18.20000","1.51684","1770.15"
"18.40000","1.53327","1785.44"
"18.60000","1.55021","1799.68"
"18.80000","1.56714","1815.77"
"19.00000","1.58337","1830.11"
"19.20000","1.60000","1845"
"19.40000","1.61673","1859.85"
"19.60000","1.63386","1875.21"
"19.80000","1.64969","1888.61"
"20.00000","1.66682","1903.9"
"20.20000","1.68346","1919.02"
"20.40000","1.69988","1933.66"
"20.60000","1.71652","1947.19"
"20.80000","1.73365","1963.15"
"21.00000","1.75028","1979.46"
"21.20000","1.76671","1993.42"
"21.40000","1.78374","2008.87"
"21.60000","1.80038","2024.13"
"21.80000","1.81660","2038.23"
"22.00000","1.83323","2052.62"
"22.20000","1.85037","2067.8"
"22.40000","1.86670","2083.11"
"22.60000","1.88293","2098.05"
"22.80000","1.90016","2114.32"
"23.00000","1.91689","2128.53"
"23.20000","1.93322","2143.42"
"23.40000","1.95026","2157.89"
"23.60000","1.96699","2174.29"
"23.80000","1.98342","2188.94"
"24.00000","2.00005","2203.64"
"24.20000","2.01688","2218.69"
"24.40000","2.03391","2234.39"
"24.60000","2.04974","2248.62"
"24.80000","2.06697","2263.87"
"25.00000","2.08361","2279.17"
"25.20000","2.09973","2293"
"25.40000","2.11667","2308.49"
"25.60000","2.13370","2323.37"
"25.80000","2.15003","2336.97"
"26.00000","2.16656","2351.62"
"26.20000","2.18359","2366.53"
"26.40000","2.20043","2381.3"
"26.60000","2.21645","2395.26"
"26.80000","2.23328","2412.71"
"27.00000","2.25032","2427.86"
"27.20000","2.26665","2442.77"
"27.40000","2.28328","2457.2"
"27.60000","2.30031","2473.02"
"27.80000","2.31664","2488.99"
"28.00000","2.33317","2504.07"
"28.20000","2.35010","2517.94"
"28.40000","2.36674","2533.09"
"28.60000","2.38337","2547.54"
"28.80000","2.40030","2562.79"
"29.00000","2.41703","2577.39"
"29.20000","2.43376","2592.97"
"29.40000","2.44989","2606.75"
"29.60000","2.46713","2621.68"
"29.80000","2.48345","2636.22"
"30.00000","2.49998","2651.81"
"30.20000","2.51692","2667.01"
"30.40000","2.53345","2681.51"
"30.60000","2.54988","2696.48"
"30.80000","2.56651","2712.19"
"31.00000","2.58344","2727.17"
"31.20000","2.60007","2743.31"
"31.40000","2.61660","2757.55"
"31.60000","2.63354","2773.83"
"31.80000","2.65037","2789.19"
"32.00000","2.66650","2802.63"
"32.20000","2.68343","2818.05"
"32.40000","2.70056","2834.12"
"32.60000","2.71669","2848.08"
"32.80000","2.73332","2863.72"
"33.00000","2.75026","2877.66"
"33.20000","2.76699","2892.68"
"33.40000","2.78301","2906.36"
"33.60000","2.80005","2921.73"
"33.80000","2.81648","2935.77"
"34.00000","2.83341","2950.43"
"34.20000","2.84974","2964.77"
"34.40000","2.86707","2981.85"
"34.60000","2.88381","2993.95"
"34.80000","2.89983","3009.35"
"35.00000","2.91707","3024.7"
"35.20000","2.93350","3039.13"
"35.40000","2.95013","3054.04"
"35.60000","2.96676","3068.4"
"35.80000","2.98369","3084.48"
"36.00000","2.99992","3098.2"
"36.20000","3.01655","3112.67"
"36.40000","3.03328","3126.49"
"36.60000","3.05022","3140.93"
"36.80000","3.06644","3154.6"
"37.00000","3.08358","3169.19"
"37.20000","3.10041","3184.12"
"37.40000","3.11644","3198.09"
"37.60000","3.13327","3212.19"
"37.80000","3.15031","3227.9"
"38.00000","3.16714","3240.97"
"38.20000","3.18326","3254.72"
"38.40000","3.19979","3269.58"
"38.60000","3.21713","3284.26"
"38.80000","3.23326","3297.73"
"39.00000","3.24999","3313.18"
"39.20000","3.26692","3327.76"
"39.40000","3.28355","3342.05"
"39.60000","3.29978","3354.93"
"39.80000","3.31722","3369.18"
"40.00000","3.33345","3381.96"
"40.20000","3.35008","3396.37"
"40.40000","3.36691","3411.33"
"40.60000","3.38374","3424.23"
"40.80000","3.39987","3437.22"
"41.00000","3.41680","3452.84"
"41.20000","3.43384","3467.19"
"41.40000","3.45017","3479.79"
"41.60000","3.46629","3493.43"
"41.80000","3.48363","3508.31"
"42.00000","3.50036","3522.1"
"42.20000","3.51659","3535.39"
"42.40000","3.53342","3549.14"
"42.60000","3.55025","3563.26"
"42.80000","3.56689","3577.43"
"43.00000","3.58321","3590.34"
"43.20000","3.60005","3602.33"
"43.40000","3.61718","3617.1"
"43.60000","3.63331","3628.81"
"43.80000","3.65014","3641.8"
"44.00000","3.66687","3655.16"
"44.20000","3.68340","3667.81"
"44.40000","3.69983","3679.82"
"44.60000","3.71707","3693.87"
"44.80000","3.73309","3706.52"
"45.00000","3.75003","3718.65"
"45.20000","3.76706","3731.93"
"45.40000","3.78359","3744.93"
"45.60000","3.79992","3755.96"
"45.80000","3.81665","3769.68"
"46.00000","3.83359","3782.63"
"46.20000","3.85022","3794.26"
"46.40000","3.86654","3806.12"
"46.60000","3.88378","3819.77"
"46.80000","3.90021","3831.22"
"47.00000","3.91644","3841.44"
"47.20000","3.93347","3853.22"
"47.40000","3.95020","3865.03"
"47.60000","3.96663","3876.44"
"47.80000","3.98336","3887.38"
"48.00000","4.00010","3899.52"
"48.20000","4.01733","3910.02"
"48.40000","4.03316","3920.47"
"48.60000","4.05029","3931.72"
"48.80000","4.06712","3943"
"49.00000","4.08345","3953.86"
"49.20000","4.09978","3963.59"
"49.40000","4.11692","3974.82"
"49.60000","4.13324","3983.9"
"49.80000","4.14988","3993.26"
"50.00000","4.16681","4004.22"
"50.20000","4.18374","4013.65"
"50.40000","4.19977","4021.03"
"50.60000","4.21670","4030.02"
"50.80000","4.23384","4039.49"
"51.00000","4.25006","4047.09"
"51.20000","4.26649","4054.65"
"51.40000","4.28383","4062.72"
"51.60000","4.30026","4070.14"
"51.80000","4.31659","4076.1"
"52.00000","4.33352","4081.97"
"52.20000","4.35045","4087.52"
"52.40000","4.36648","4091.12"
"52.60000","4.38341","4094.58"
"52.80000","4.40015","4097.82"
"53.00000","4.41708","4099.97"
"53.20000","4.43300","4101.07"
"53.40000","4.45034","4102.21"
"53.60000","4.46697","4100.72"
"53.80000","4.48310","4098.19"
"54.00000","4.50023","4095.74"
"54.20000","4.51697","4091.56"
"54.40000","4.53350","4084.34"
"54.60000","4.55023","4078"
"54.80000","4.56726","4068.82"
"55.00000","4.58359","4058.93"
"55.20000","4.59972","4046.73"
"55.40000","4.61685","4035.17"
"55.60000","4.63358","4022.27"
"55.80000","4.64981","4008"
"56.00000","4.66644","3991.36"
"56.20000","4.68368","3977.88"
"56.40000","4.70001","3961.25"
"56.60000","4.71654","3942.97"
"56.80000","4.73377","3925.46"
"57.00000","4.75030","3906.72"
"57.20000","4.76673","3885.24"
"57.40000","4.78357","3863.3"
"57.60000","4.80040","3839.17"
"57.80000","4.81703","3810.69"
"58.00000","4.83326","3777.92"
"58.20000","4.85019","3737.74"
"58.40000","4.86702","3682.48"
"58.60000","4.88325","3578.44"
"58.68000","4.88990","2957.69"
"58.68800","4.89071","2190.36"
"58.69000","4.89091","1991.24"