File: Data_Processing/Tensile-Data/Sequence_10.csv
General : Start date,"10/22/2024 9:38 AM"
General : End date,"10/22/2024 9:39 AM"
Specimen notes : Specimen note 1,"green, 200, batch 6, seq 10"
Test : Rate 1,"5.00000",mm/min

Time,Extension,Load
(s),(mm),(N)
"0.00000","-0.00020","1.16497"
"0.20000","0.00947","10.76237"
"0.40000","0.03286","56.41679"
"0.60000","0.04939","84.78900"
"0.80000","0.06673","112.228"
"1.00000","0.08356","139.465"
"1.20000","0.09979","155.711"
"1.40000","0.11642","182.675"
"1.60000","0.13365","210.991"
"1.80000","0.14998","238.515"
"2.00000","0.16661","267.534"
"2.20000","0.18355","294.766"
"2.40000","0.20018","323.024"
"2.60000","0.21640","351.389"
"2.80000","0.23324","379.162"
"3.00000","0.25027","407.911"
"3.20000","0.26660","435.571"
"3.40000","0.28313","461.633"
"3.60000","0.29996","488.373"
"3.80000","0.31690","515.554"
"4.00000","0.33292","542.096"
"4.20000","0.34996","569.506"
"4.40000","0.36669","597.434"
"4.60000","0.38322","624.506"
"4.80000","0.39985","651.176"
"5.00000","0.41688","678.103"
"5.20000","0.43311","704.599"
"5.40000","0.44984","731.053"
"5.60000","0.46678","756.648"
"5.80000","0.48361","783.974"
"6.00000","0.49994","810.572"
"6.20000","0.51657","836.125"
"6.40000","0.53340","863.047"
"6.60000","0.54993","889.047"
"6.80000","0.56656","914.373"
"7.00000","0.58329","941.045"
"7.20000","0.59992","967.926"
"7.40000","0.61615","992.48"
"7.60000","0.63339","1018.11"
"7.80000","0.65002","1044.47"
"8.00000","0.66675","1070.46"
"8.20000","0.68338","1095.5"
"8.40000","0.70001","1122.11"
"8.60000","0.71695","1146.33"
"8.80000","0.73297","1171.67"
"9.00000","0.75021","1197.24"
"9.20000","0.76684","1221.71"
"9.40000","0.78307","1245.82"
"9.60000","0.79960","1271.33"
"9.80000","0.81673","1296.8"
"10.00000","0.83326","1321.84"
"10.20000","0.84989","1346.13"
"10.40000","0.86672","1371.03"
"10.60000","0.88325","1394.28"
"10.80000","0.89958","1417.97"
"11.00000","0.91631","1443.78"
"11.20000","0.93375","1468.94"
"11.40000","0.94988","1492.02"
"11.60000","0.96651","1517.31"
"11.80000","0.98365","1542.5"
"12.00000","1.00018","1565.42"
"12.20000","1.01620","1588.2"
"12.40000","1.03334","1612.1"
"12.60000","1.05017","1635.84"
"12.80000","1.06630","1659.2"
"13.00000","1.08323","1682.78"
"13.20000","1.09986","1705.96"
"13.40000","1.11699","1730.15"
"13.60000","1.13282","1751.2"
"13.80000","1.15006","1775.99"
"14.00000","1.16689","1797.51"
"14.20000","1.18281","1820.83"
"14.40000","1.20005","1843.02"
"14.60000","1.21678","1866.05"
"14.80000","1.23321","1888.92"
"15.00000","1.24974","1912.18"
"15.20000","1.26677","1933.89"
"15.40000","1.28320","1955.28"
"15.60000","1.29963","1976.85"
"15.80000","1.31657","1999.06"
"16.00000","1.33350","2020.83"
"16.20000","1.34973","2042.57"
"16.40000","1.36656","2064.89"
"16.60000","1.38380","2088.16"
"16.80000","1.39972","2109.97"
"17.00000","1.41635","2130.72"
"17.20000","1.43349","2152.56"
"17.40000","1.45012","2174.56"
"17.60000","1.46655","2196.04"
"17.80000","1.48318","2216.74"
"18.00000","1.50011","2237.85"
"18.20000","1.51674","2259.25"
"18.40000","1.53307","2279.6"
"18.60000","1.55021","2302.36"
"18.80000","1.56674","2322.63"
"19.00000","1.58306","2342.22"
"19.20000","1.60030","2363.23"
"19.40000","1.61653","2384.87"
"19.60000","1.63326","2404.91"
"19.80000","1.64999","2424.85"
"20.00000","1.66672","2445.37"
"20.20000","1.68325","2460.61"
"20.40000","1.69968","2479.96"
"20.60000","1.71672","2502.19"
"20.80000","1.73335","2522.29"
"21.00000","1.74968","2540.68"
"21.20000","1.76661","2560.68"
"21.40000","1.78364","2581.23"
"21.60000","1.79987","2600.25"
"21.80000","1.81640","2618.81"
"22.00000","1.83334","2639.94"
"22.20000","1.85027","2659.06"
"22.40000","1.86650","2676.94"
"22.60000","1.88343","2696.95"
"22.80000","1.90026","2716.19"
"23.00000","1.91659","2734.41"
"23.20000","1.93312","2753.59"
"23.40000","1.94985","2772.4"
"23.60000","1.96658","2789.4"
"23.80000","1.98281","2807.75"
"24.00000","2.00015","2828.41"
"24.20000","2.01648","2846.28"
"24.40000","2.03341","2859.88"
"24.60000","2.05014","2877.69"
"24.80000","2.06687","2896.23"
"25.00000","2.08310","2913.84"
"25.20000","2.09973","2932.24"
"25.40000","2.11677","2949.63"
"25.60000","2.13350","2965.24"
"25.80000","2.14963","2982.61"
"26.00000","2.16676","3001.75"
"26.20000","2.18349","3018.99"
"26.40000","2.19952","3035.16"
"26.60000","2.21645","3052.51"
"26.80000","2.23349","3070.06"
"27.00000","2.25012","3086.94"
"27.20000","2.26645","3103.94"
"27.40000","2.28328","3121.83"
"27.60000","2.30031","3137.92"
"27.80000","2.31634","3153.34"
"28.00000","2.33347","3170.44"
"28.20000","2.35010","3186.34"
"28.40000","2.36643","3121.89"
"28.60000","2.38306","3119.13"
"28.80000","2.40020","3138.84"
"29.00000","2.41643","3157.64"
"29.20000","2.43306","3176.33"
"29.40000","2.44999","3195.23"
"29.60000","2.46682","3213.44"
"29.80000","2.48305","3229.79"
"30.00000","2.49998","3247.24"
"30.20000","2.51722","3235.22"
"30.40000","2.53345","3253.2"
"30.60000","2.54968","3268.95"
"30.80000","2.56691","3287.56"
"31.00000","2.58334","3301.19"
"31.20000","2.59977","3316.73"
"31.40000","2.61670","3332.72"
"31.60000","2.63344","3348.12"
"31.80000","2.64976","3363.19"
"32.00000","2.66629","3377.39"
"32.20000","2.68333","3392.93"
"32.40000","2.70026","3406.91"
"32.60000","2.71619","3419.65"
"32.80000","2.73352","3433.65"
"33.00000","2.74995","3446.76"
"33.20000","2.76648","3453"
"33.40000","2.78332","3462.73"
"33.60000","2.80025","3475.58"
"33.80000","2.81668","3486.78"
"34.00000","2.83321","3496.58"
"34.20000","2.85004","3505.99"
"34.40000","2.86677","3514.03"
"34.60000","2.88300","3521.98"
"34.80000","2.89983","3529.69"
"35.00000","2.91687","3535.8"
"35.20000","2.93330","3538.31"
"35.40000","2.94973","3538.69"
"35.60000","2.96716","3535.17"
"35.80000","2.98339","3520.24"
"36.00000","2.99962","3484.43"
"36.20000","3.01675","3391.95"
"36.40000","3.03359","3252.78"
"36.60000","3.05002","3122.69"
"36.66600","3.05536","2566.82"
"36.67400","3.05616","1901.24"
"36.67600","3.05637","1729.43"