File: Data_Processing/Tensile-Data/Sequence_49.csv
General : Start date,"11/5/2024 8:30 AM"
General : End date,"11/5/2024 8:31 AM"
Specimen notes : Specimen note 1,"Day 3, purple, 230, batch 14, seq 49"
Test : Rate 1,"5.00000",mm/min

Time,Extension,Load
(s),(mm),(N)
"0.00000","0.00010","-0.15701"
"0.20000","0.00927","5.99209"
"0.40000","0.03125","46.68366"
"0.60000","0.04878","78.97036"
"0.80000","0.06662","110.791"
"1.00000","0.08346","140.631"
"1.20000","0.10009","169.84"
"1.40000","0.11682","198.719"
"1.60000","0.13375","227.747"
"1.80000","0.15018","253.34"
"2.00000","0.16651","280.647"
"2.20000","0.18385","307.415"
"2.40000","0.20008","334.669"
"2.60000","0.21650","361.942"
"2.80000","0.23364","389.936"
"3.00000","0.25007","416.816"
"3.20000","0.26670","443.327"
"3.40000","0.28363","469.856"
"3.60000","0.30037","496.673"
"3.80000","0.31690","523.9"
"4.00000","0.33343","548.649"
"4.20000","0.35036","575.379"
"4.40000","0.36709","601.705"
"4.60000","0.38312","626.682"
"4.80000","0.40025","652.078"
"5.00000","0.41708","678.603"
"5.20000","0.43331","701.941"
"5.40000","0.45004","727.064"
"5.60000","0.46698","750.83"
"5.80000","0.48341","773.458"
"6.00000","0.50014","797.676"
"6.20000","0.51707","821.916"
"6.40000","0.53380","845.797"
"6.60000","0.55003","866.5"
"6.80000","0.56676","890.497"
"7.00000","0.58380","911.988"
"7.20000","0.59982","933.525"
"7.40000","0.61645","954.438"
"7.60000","0.63369","976.989"
"7.80000","0.64992","997.898"
"8.00000","0.66625","1018.62"
"8.20000","0.68358","1040.11"
"8.40000","0.70021","1059.52"
"8.60000","0.71674","1080.84"
"8.80000","0.73327","1101.27"
"9.00000","0.75031","1121.94"
"9.20000","0.76714","1141.21"
"9.40000","0.78317","1161.68"
"9.60000","0.80010","1181.22"
"9.80000","0.81693","1202.51"
"10.00000","0.83326","1220.9"
"10.20000","0.85019","1241.36"
"10.40000","0.86693","1261.11"
"10.60000","0.88356","1278.22"
"10.80000","0.89999","1297.04"
"11.00000","0.91692","1315.11"
"11.20000","0.93345","1332.62"
"11.40000","0.94988","1350.34"
"11.60000","0.96651","1368.37"
"11.80000","0.98375","1387.07"
"12.00000","0.99997","1405.83"
"12.20000","1.01691","1424.44"
"12.40000","1.03384","1441.72"
"12.60000","1.05037","1459.83"
"12.80000","1.06670","1476.48"
"13.00000","1.08353","1495.75"
"13.20000","1.10046","1511.75"
"13.40000","1.11649","1527.99"
"13.60000","1.13353","1545.01"
"13.80000","1.15016","1563.24"
"14.00000","1.16689","1579.06"
"14.20000","1.18301","1595.7"
"14.40000","1.20035","1613.49"
"14.60000","1.21718","1629.14"
"14.80000","1.23311","1645.29"
"15.00000","1.25034","1662.51"
"15.20000","1.26698","1679.36"
"15.40000","1.28361","1695.29"
"15.60000","1.29983","1711.85"
"15.80000","1.31707","1729.45"
"16.00000","1.33360","1746.01"
"16.20000","1.34983","1762.67"
"16.40000","1.36686","1779.39"
"16.60000","1.38380","1796.66"
"16.80000","1.39982","1812.82"
"17.00000","1.41696","1830.34"
"17.20000","1.43349","1847.87"
"17.40000","1.45022","1864.93"
"17.60000","1.46675","1881.21"
"17.80000","1.48368","1898.28"
"18.00000","1.50031","1914"
"18.20000","1.51634","1929.71"
"18.40000","1.53327","1945.95"
"18.60000","1.55031","1963.03"
"18.80000","1.56653","1979.96"
"19.00000","1.58337","1996.69"
"19.20000","1.60040","2013.72"
"19.40000","1.61683","2030.75"
"19.60000","1.63316","2046.96"
"19.80000","1.65029","2063.68"
"20.00000","1.66682","2080.52"
"20.20000","1.68346","2097.67"
"20.40000","1.69999","2114.29"
"20.60000","1.71712","2131.11"
"20.80000","1.73325","2147.88"
"21.00000","1.75008","2163.78"
"21.20000","1.76711","2180.72"
"21.40000","1.78344","2197.21"
"21.60000","1.79997","2214.35"
"21.80000","1.81701","2230.43"
"22.00000","1.83364","2247.49"
"22.20000","1.85007","2263.88"
"22.40000","1.86670","2279.47"
"22.60000","1.88343","2296.13"
"22.80000","1.90026","2312.19"
"23.00000","1.91639","2328.88"
"23.20000","1.93383","2344.53"
"23.40000","1.95046","2360.96"
"23.60000","1.96658","2376.09"
"23.80000","1.98342","2392.89"
"24.00000","2.00025","2408.36"
"24.20000","2.01678","2425.21"
"24.40000","2.03331","2441.78"
"24.60000","2.05014","2458.3"
"24.80000","2.06687","2475.15"
"25.00000","2.08340","2490.19"
"25.20000","2.10024","2508.26"
"25.40000","2.11717","2524.82"
"25.60000","2.13360","2541.33"
"25.80000","2.14993","2557.22"
"26.00000","2.16726","2574.31"
"26.20000","2.18349","2590.55"
"26.40000","2.19992","2606.15"
"26.60000","2.21686","2623"
"26.80000","2.23349","2639.55"
"27.00000","2.24981","2656.81"
"27.20000","2.26675","2673.47"
"27.40000","2.28358","2690.87"
"27.60000","2.30031","2707.45"
"27.80000","2.31654","2722.89"
"28.00000","2.33368","2739.86"
"28.20000","2.35051","2755.83"
"28.40000","2.36643","2771.91"
"28.60000","2.38387","2789.82"
"28.80000","2.40050","2805.48"
"29.00000","2.41683","2821.71"
"29.20000","2.43316","2836.23"
"29.40000","2.44999","2853.79"
"29.60000","2.46662","2869.59"
"29.80000","2.48305","2886.77"
"30.00000","2.50019","2903.26"
"30.20000","2.51712","2920.81"
"30.40000","2.53335","2935.83"
"30.60000","2.54998","2951.89"
"30.80000","2.56721","2969.16"
"31.00000","2.58344","2983.85"
"31.20000","2.59997","3000.18"
"31.40000","2.61691","3017.38"
"31.60000","2.63374","3032.79"
"31.80000","2.64966","3048.93"
"32.00000","2.66690","3065.29"
"32.20000","2.68383","3082.27"
"32.40000","2.70016","3097.71"
"32.60000","2.71669","3113.14"
"32.80000","2.73372","3131.03"
"33.00000","2.75015","3146.06"
"33.20000","2.76648","3161.34"
"33.40000","2.78372","3177.14"
"33.60000","2.80015","3193.37"
"33.80000","2.81658","3207.74"
"34.00000","2.83361","3224.44"
"34.20000","2.85034","3238.91"
"34.40000","2.86697","3255.06"
"34.60000","2.88330","3270.92"
"34.80000","2.90034","3286.24"
"35.00000","2.91697","3300.31"
"35.20000","2.93309","3315.91"
"35.40000","2.95013","3331.72"
"35.60000","2.96716","3346.75"
"35.80000","2.98339","3360.52"
"36.00000","3.00012","3375.62"
"36.20000","3.01695","3389.39"
"36.40000","3.03349","3403.12"
"36.60000","3.05002","3415.59"
"36.80000","3.06685","3428.21"
"37.00000","3.08368","3442.21"
"37.20000","3.10001","3454.34"
"37.40000","3.11674","3465.56"
"37.60000","3.13367","3476.94"
"37.80000","3.15020","3487.28"
"38.00000","3.16643","3495.64"
"38.20000","3.18387","3503.99"
"38.40000","3.20040","3508.02"
"38.60000","3.21653","3507.98"
"38.80000","3.23346","3487.49"
"38.83400","3.23648","2831.66"
"38.84200","3.23739","2048.28"