File: Data_Processing/Tensile-Data/Sequence_47.csv
General : Start date,"11/5/2024 8:27 AM"
General : End date,"11/5/2024 8:27 AM"
Specimen notes : Specimen note 1,"Day 3, black, 230, batch 16, seq 47"
Test : Rate 1,"5.00000",mm/min

Time,Extension,Load
(s),(mm),(N)
"0.00000","0.00000","0.13510"
"0.20000","0.01089","13.69400"
"0.40000","0.03286","57.90125"
"0.60000","0.04959","86.68402"
"0.80000","0.06673","115.437"
"1.00000","0.08376","143.291"
"1.20000","0.10019","173.465"
"1.40000","0.11672","201.733"
"1.60000","0.13395","230.347"
"1.80000","0.15018","257.126"
"2.00000","0.16661","284.225"
"2.20000","0.18365","313.471"
"2.40000","0.19997","339.814"
"2.60000","0.21681","367.939"
"2.80000","0.23354","396.151"
"3.00000","0.25057","421.76"
"3.20000","0.26710","447.146"
"3.40000","0.28353","473.46"
"3.60000","0.30037","499.139"
"3.80000","0.31710","526.254"
"4.00000","0.33332","550.344"
"4.20000","0.35016","576.688"
"4.40000","0.36699","603.734"
"4.60000","0.38352","628.34"
"4.80000","0.40005","653.088"
"5.00000","0.41708","679.049"
"5.20000","0.43331","702.404"
"5.40000","0.45035","725.069"
"5.60000","0.46698","749.642"
"5.80000","0.48391","775.39"
"6.00000","0.50024","797.605"
"6.20000","0.51667","820.692"
"6.40000","0.53380","844.876"
"6.60000","0.55013","867.08"
"6.80000","0.56636","888.111"
"7.00000","0.58370","910.378"
"7.20000","0.60023","933.068"
"7.40000","0.61635","952.766"
"7.60000","0.63349","974.325"
"7.80000","0.65022","995.668"
"8.00000","0.66695","1016.17"
"8.20000","0.68348","1037.03"
"8.40000","0.70031","1056.56"
"8.60000","0.71735","1075.78"
"8.80000","0.73327","1092.83"
"9.00000","0.75031","1111.16"
"9.20000","0.76704","1128.75"
"9.40000","0.78337","1146.46"
"9.60000","0.80000","1165.03"
"9.80000","0.81703","1184.08"
"10.00000","0.83356","1201.24"
"10.20000","0.84999","1219.33"
"10.40000","0.86693","1237.89"
"10.60000","0.88356","1255.63"
"10.80000","0.89999","1273.98"
"11.00000","0.91642","1292.51"
"11.20000","0.93395","1311.43"
"11.40000","0.94998","1328.33"
"11.60000","0.96691","1345.64"
"11.80000","0.98395","1363.66"
"12.00000","1.00048","1382.14"
"12.20000","1.01660","1398.7"
"12.40000","1.03374","1417.03"
"12.60000","1.05057","1434.99"
"12.80000","1.06670","1451.89"
"13.00000","1.08333","1470.04"
"13.20000","1.10026","1488.53"
"13.40000","1.11689","1506.24"
"13.60000","1.13312","1521.17"
"13.80000","1.15046","1536.6"
"14.00000","1.16719","1553.36"
"14.20000","1.18332","1569.01"
"14.40000","1.20025","1586.63"
"14.60000","1.21688","1602.43"
"14.80000","1.23361","1620.73"
"15.00000","1.24994","1636.68"
"15.20000","1.26708","1653.6"
"15.40000","1.28361","1669.49"
"15.60000","1.30004","1684.75"
"15.80000","1.31687","1701.76"
"16.00000","1.33380","1718.33"
"16.20000","1.35003","1733.35"
"16.40000","1.36686","1750.61"
"16.60000","1.38370","1766.92"
"16.80000","1.40023","1783.37"
"17.00000","1.41686","1799.59"
"17.20000","1.43369","1817.25"
"17.40000","1.45042","1833.69"
"17.60000","1.46665","1848.08"
"17.80000","1.48318","1865.05"
"18.00000","1.50011","1881.84"
"18.20000","1.51664","1898.77"
"18.40000","1.53317","1914.18"
"18.60000","1.55041","1930.5"
"18.80000","1.56704","1948.03"
"19.00000","1.58327","1963.13"
"19.20000","1.60030","1981.16"
"19.40000","1.61683","1998.71"
"19.60000","1.63366","2015.28"
"19.80000","1.64999","2032.04"
"20.00000","1.66713","2049.39"
"20.20000","1.68346","2065.77"
"20.40000","1.70009","2083.38"
"20.60000","1.71692","2099.71"
"20.80000","1.73385","2116.01"
"21.00000","1.74998","2132.99"
"21.20000","1.76701","2149.06"
"21.40000","1.78364","2165.25"
"21.60000","1.80017","2180.43"
"21.80000","1.81670","2196.38"
"22.00000","1.83354","2213.57"
"22.20000","1.85047","2229.95"
"22.40000","1.86650","2244.95"
"22.60000","1.88363","2263.93"
"22.80000","1.90056","2280.4"
"23.00000","1.91679","2296.42"
"23.20000","1.93342","2313.01"
"23.40000","1.95036","2330.04"
"23.60000","1.96679","2345.98"
"23.80000","1.98301","2361.82"
"24.00000","2.00055","2379.23"
"24.20000","2.01688","2396.27"
"24.40000","2.03351","2413.91"
"24.60000","2.05014","2430.57"
"24.80000","2.06738","2448.43"
"25.00000","2.08371","2464.23"
"25.20000","2.10004","2480.27"
"25.40000","2.11717","2497.71"
"25.60000","2.13370","2514.28"
"25.80000","2.14993","2529.8"
"26.00000","2.16696","2546.7"
"26.20000","2.18359","2564.09"
"26.40000","2.19992","2579.11"
"26.60000","2.21675","2596.51"
"26.80000","2.23359","2614.3"
"27.00000","2.25032","2629.39"
"27.20000","2.26655","2645.03"
"27.40000","2.28368","2663.68"
"27.60000","2.30051","2680.46"
"27.80000","2.31654","2696.81"
"28.00000","2.33378","2713.8"
"28.20000","2.35061","2731.14"
"28.40000","2.36694","2746.67"
"28.60000","2.38327","2761.15"
"28.80000","2.40020","2777.26"
"29.00000","2.41663","2794.37"
"29.20000","2.43326","2811.44"
"29.40000","2.45009","2827.78"
"29.60000","2.46692","2844.39"
"29.80000","2.48345","2861.14"
"30.00000","2.49998","2878.88"
"30.20000","2.51732","2896.36"
"30.40000","2.53355","2909.83"
"30.60000","2.55018","2926.91"
"30.80000","2.56691","2943.79"
"31.00000","2.58374","2959.66"
"31.20000","2.59997","2975.97"
"31.40000","2.61680","2992.84"
"31.60000","2.63384","3008.86"
"31.80000","2.65037","3025.42"
"32.00000","2.66650","3040.05"
"32.20000","2.68373","3057.06"
"32.40000","2.70036","3074.43"
"32.60000","2.71639","3090.58"
"32.80000","2.73372","3106.83"
"33.00000","2.75036","3123.35"
"33.20000","2.76679","3140.1"
"33.40000","2.78342","3155.31"
"33.60000","2.80035","3172.04"
"33.80000","2.81708","3186.78"
"34.00000","2.83341","3202.01"
"34.20000","2.85034","3219.32"
"34.40000","2.86707","3234.97"
"34.60000","2.88320","3250.47"
"34.80000","2.89993","3266.62"
"35.00000","2.91727","3283.53"
"35.20000","2.93360","3299.02"
"35.40000","2.95013","3314.94"
"35.60000","2.96706","3330.16"
"35.80000","2.98359","3346.25"
"36.00000","3.00002","3362.04"
"36.20000","3.01695","3377.41"
"36.40000","3.03389","3392.83"
"36.60000","3.05032","3408.67"
"36.80000","3.06665","3423.54"
"37.00000","3.08378","3439.74"
"37.20000","3.10031","3455.32"
"37.40000","3.11644","3470.06"
"37.60000","3.13377","3486.22"
"37.80000","3.15051","3501.38"
"38.00000","3.16663","3514.59"
"38.20000","3.18347","3529.5"
"38.40000","3.20030","3546.24"
"38.60000","3.21723","3562.01"
"38.80000","3.23326","3576.06"
"39.00000","3.25049","3593.27"
"39.20000","3.26702","3607.04"
"39.40000","3.28335","3620.96"
"39.60000","3.30018","3636.16"
"39.80000","3.31712","3651.03"
"40.00000","3.33304","3664.66"
"40.20000","3.34998","3680.72"
"40.40000","3.36701","3695.92"
"40.60000","3.38354","3710.16"
"40.80000","3.40017","3724.05"
"41.00000","3.41701","3737.58"
"41.20000","3.43384","3752.12"
"41.40000","3.45017","3765.64"
"41.60000","3.46680","3776.93"
"41.80000","3.48373","3791.31"
"42.00000","3.50026","3803.54"
"42.20000","3.51669","3814.39"
"42.40000","3.53362","3826.39"
"42.60000","3.55025","3837.37"
"42.80000","3.56668","3847.6"
"43.00000","3.58352","3856.1"
"43.20000","3.60005","3866.16"
"43.40000","3.61698","3875.76"
"43.60000","3.63341","3882.97"
"43.80000","3.65054","3890.95"
"44.00000","3.66707","3894.71"
"44.20000","3.68320","3897.77"
"44.40000","3.70034","3899.92"
"44.60000","3.71707","3899.29"
"44.80000","3.73340","3892.87"
"45.00000","3.75033","3884.64"
"45.20000","3.76706","3866.28"
"45.40000","3.78329","3829.16"
"45.60000","3.80002","3740.94"
"45.65800","3.80506","3059.92"
"45.66600","3.80597","2240.5"