File: Data_Processing/Tensile-Data/Sequence_9.csv
General : Start date,"10/22/2024 9:35 AM"
General : End date,"10/22/2024 9:36 AM"
Specimen notes : Specimen note 1,"red, 200, batch 1, seq 9"
Test : Rate 1,"5.00000",mm/min

Time,Extension,Load
(s),(mm),(N)
"0.00000","0.00000","0.95036"
"0.20000","0.00776","7.80777"
"0.40000","0.03256","56.46309"
"0.60000","0.04949","88.04853"
"0.80000","0.06652","116.409"
"1.00000","0.08366","133.74"
"1.20000","0.10009","164.666"
"1.40000","0.11652","192.642"
"1.60000","0.13345","222.656"
"1.80000","0.15059","252.175"
"2.00000","0.16691","281.065"
"2.20000","0.18334","307.847"
"2.40000","0.20008","336.276"
"2.60000","0.21691","364.992"
"2.80000","0.23303","392.507"
"3.00000","0.25017","421.734"
"3.20000","0.26700","450.036"
"3.40000","0.28323","477.5"
"3.60000","0.30006","506.721"
"3.80000","0.31710","535.099"
"4.00000","0.33332","562.132"
"4.20000","0.34985","590.173"
"4.40000","0.36699","618.461"
"4.60000","0.38382","647.695"
"4.80000","0.40005","675.35"
"5.00000","0.41678","703.234"
"5.20000","0.43382","730.765"
"5.40000","0.45014","757.989"
"5.60000","0.46647","785.328"
"5.80000","0.48351","813.232"
"6.00000","0.49994","840.865"
"6.20000","0.51637","867.134"
"6.40000","0.53370","895.734"
"6.60000","0.55013","922.594"
"6.80000","0.56686","950.064"
"7.00000","0.58360","977.174"
"7.20000","0.60033","1004.16"
"7.40000","0.61696","1030.84"
"7.60000","0.63319","1056.81"
"7.80000","0.65022","1084.31"
"8.00000","0.66705","1110.72"
"8.20000","0.68328","1136.13"
"8.40000","0.70001","1163.18"
"8.60000","0.71695","1190.82"
"8.80000","0.73348","1217.23"
"9.00000","0.74990","1242.91"
"9.20000","0.76694","1270.15"
"9.40000","0.78317","1295.86"
"9.60000","0.79980","1320.61"
"9.80000","0.81653","1347.53"
"10.00000","0.83376","1372.7"
"10.20000","0.84989","1398.15"
"10.40000","0.86662","1423.75"
"10.60000","0.88376","1449.71"
"10.80000","0.90019","1475.24"
"11.00000","0.91642","1501.4"
"11.20000","0.93345","1526.15"
"11.40000","0.95058","1551.07"
"11.60000","0.96641","1574.27"
"11.80000","0.98354","1600.36"
"12.00000","0.99997","1625.69"
"12.20000","1.01721","1649.37"
"12.40000","1.03303","1672.48"
"12.60000","1.05017","1698.73"
"12.80000","1.06690","1722.41"
"13.00000","1.08303","1746.15"
"13.20000","1.10016","1770.33"
"13.40000","1.11710","1794.88"
"13.60000","1.13342","1818.82"
"13.80000","1.14985","1842.07"
"14.00000","1.16699","1866.4"
"14.20000","1.18342","1889.32"
"14.40000","1.19975","1912.05"
"14.60000","1.21678","1935.99"
"14.80000","1.23381","1959.23"
"15.00000","1.24984","1980.83"
"15.20000","1.26677","2003.1"
"15.40000","1.28381","2026.44"
"15.60000","1.29994","2049.27"
"15.80000","1.31657","2072.2"
"16.00000","1.33370","2095.37"
"16.20000","1.35023","2116.97"
"16.40000","1.36656","2139.49"
"16.60000","1.38329","2162.48"
"16.80000","1.40033","2184.26"
"17.00000","1.41665","2206.71"
"17.20000","1.43339","2228.11"
"17.40000","1.45042","2251.34"
"17.60000","1.46685","2273.23"
"17.80000","1.48318","2294.63"
"18.00000","1.50051","2317.56"
"18.20000","1.51684","2339.68"
"18.40000","1.53347","2361.05"
"18.60000","1.55011","2382.12"
"18.80000","1.56694","2403.47"
"19.00000","1.58306","2423.81"
"19.20000","1.59970","2445.65"
"19.40000","1.61683","2467.97"
"19.60000","1.63366","2489.13"
"19.80000","1.64979","2510.54"
"20.00000","1.66693","2531.94"
"20.20000","1.68376","2551.89"
"20.40000","1.69988","2572.81"
"20.60000","1.71672","2593.46"
"20.80000","1.73365","2615.16"
"21.00000","1.75028","2636.08"
"21.20000","1.76661","2654.69"
"21.40000","1.78354","2675.69"
"21.60000","1.80048","2614.6"
"21.80000","1.81660","2636.9"
"22.00000","1.83334","2658.66"
"22.20000","1.85017","2682.67"
"22.40000","1.86670","2704.21"
"22.60000","1.88293","2725.2"
"22.80000","1.90036","2748.91"
"23.00000","1.91659","2768.9"
"23.20000","1.93352","2790.46"
"23.40000","1.95016","2811.85"
"23.60000","1.96699","2832.78"
"23.80000","1.98332","2852.4"
"24.00000","1.99985","2873.3"
"24.20000","2.01698","2894.98"
"24.40000","2.03371","2915.05"
"24.60000","2.04974","2933.06"
"24.80000","2.06677","2954.48"
"25.00000","2.08351","2973.67"
"25.20000","2.09973","2992.37"
"25.40000","2.11677","3012.98"
"25.60000","2.13370","3032.87"
"25.80000","2.15023","3051.11"
"26.00000","2.16666","3069.71"
"26.20000","2.18339","3089.33"
"26.40000","2.20053","3108.29"
"26.60000","2.21645","3125.59"
"26.80000","2.23359","3144.68"
"27.00000","2.25032","3163.1"
"27.20000","2.26645","3180.21"
"27.40000","2.28328","3197.93"
"27.60000","2.30031","3216.89"
"27.80000","2.31654","3233.61"
"28.00000","2.33307","3252.03"
"28.20000","2.35010","3196.5"
"28.40000","2.36704","3219.75"
"28.60000","2.38306","3239.57"
"28.80000","2.40010","3259.18"
"29.00000","2.41723","3279.71"
"29.20000","2.43356","3300.25"
"29.40000","2.44979","3318.04"
"29.60000","2.46723","3338.07"
"29.80000","2.48345","3355.63"
"30.00000","2.49978","3374.97"
"30.20000","2.51692","3393.11"
"30.40000","2.53365","3410.63"
"30.60000","2.54978","3428.95"
"30.80000","2.56671","3446.71"
"31.00000","2.58344","3465.06"
"31.20000","2.60038","3482.75"
"31.40000","2.61630","3498.13"
"31.60000","2.63364","3515.86"
"31.80000","2.65017","3532.75"
"32.00000","2.66660","3549.98"
"32.20000","2.68343","3565.77"
"32.40000","2.70036","3582.68"
"32.60000","2.71689","3597.14"
"32.80000","2.73342","3611.62"
"33.00000","2.75036","3626.75"
"33.20000","2.76689","3641.6"
"33.40000","2.78311","3656.6"
"33.60000","2.80005","3670.36"
"33.80000","2.81708","3685.61"
"34.00000","2.83351","3700.01"
"34.20000","2.85004","3713.05"
"34.40000","2.86718","3728.19"
"34.60000","2.88340","3741.79"
"34.80000","2.89983","3754.15"
"35.00000","2.91687","3768.68"
"35.20000","2.93370","3782.56"
"35.40000","2.94993","3795.45"
"35.60000","2.96666","3809.46"
"35.80000","2.98349","3822.11"
"36.00000","3.00022","3759.39"
"36.20000","3.01645","3774.11"
"36.40000","3.03359","3791.69"
"36.60000","3.05032","3806.55"
"36.80000","3.06644","3820.85"
"37.00000","3.08358","3835.72"
"37.20000","3.10031","3850.54"
"37.40000","3.11694","3863.5"
"37.60000","3.13327","3851.65"
"37.80000","3.15020","3844.99"
"38.00000","3.16673","3861.01"
"38.20000","3.18306","3874.22"
"38.40000","3.20010","3888.43"
"38.60000","3.21723","3902.82"
"38.80000","3.23306","3913.58"
"39.00000","3.24999","3926.1"
"39.20000","3.26712","3938.25"
"39.40000","3.28335","3947.43"
"39.60000","3.29998","3958.05"
"39.80000","3.31692","3966.74"
"40.00000","3.33395","3974.88"
"40.20000","3.34978","3978.91"
"40.40000","3.36671","3984.28"
"40.60000","3.38364","3988.02"
"40.80000","3.40007","3988.31"
"41.00000","3.41650","3984.98"
"41.20000","3.43374","3979"
"41.40000","3.45027","3962.5"
"41.60000","3.46629","3920.12"
"41.70600","3.47557","3481.34"
"41.71400","3.47637","2709.93"
"41.71800","3.47678","2272.72"