File: Data_Processing/Tensile-Data/Sequence_17.csv
General : Start date,"10/22/2024 9:59 AM"
General : End date,"10/22/2024 10:00 AM"
Specimen notes : Specimen note 1,"purple, 200, batch 9, seq 17"
Test : Rate 1,"5.00000",mm/min

Time,Extension,Load
(s),(mm),(N)
"0.00000","-0.05332","5.82368"
"0.20000","-0.03951","25.53403"
"0.40000","-0.02016","64.83092"
"0.60000","-0.00292","95.89141"
"0.80000","0.01320","125.015"
"1.00000","0.03024","154.094"
"1.20000","0.04727","171.911"
"1.40000","0.06350","197.798"
"1.60000","0.07993","225.535"
"1.80000","0.09706","252.234"
"2.00000","0.11359","280.519"
"2.20000","0.13002","308.315"
"2.40000","0.14676","337.089"
"2.60000","0.16389","365.413"
"2.80000","0.17992","393.706"
"3.00000","0.19665","422.331"
"3.20000","0.21348","450.225"
"3.40000","0.23031","479.81"
"3.60000","0.24654","506.771"
"3.80000","0.26358","536.203"
"4.00000","0.28041","565.13"
"4.20000","0.29674","592.525"
"4.40000","0.31327","621.42"
"4.60000","0.33030","650.478"
"4.80000","0.34693","678.175"
"5.00000","0.36316","706.345"
"5.20000","0.38050","734.744"
"5.40000","0.39703","763.448"
"5.60000","0.41325","789.844"
"5.80000","0.43019","818.084"
"6.00000","0.44702","847.937"
"6.20000","0.46335","874.643"
"6.40000","0.47978","902.147"
"6.60000","0.49711","931.563"
"6.80000","0.51334","957.831"
"7.00000","0.52997","986.16"
"7.20000","0.54681","1013.29"
"7.40000","0.56354","1041.11"
"7.60000","0.57977","1067.38"
"7.80000","0.59680","1094.8"
"8.00000","0.61353","1122.81"
"8.20000","0.63016","1150.21"
"8.40000","0.64669","1177.22"
"8.60000","0.66332","1204.04"
"8.80000","0.68026","1230.59"
"9.00000","0.69638","1257.6"
"9.20000","0.71332","1284.35"
"9.40000","0.73015","1310.89"
"9.60000","0.74678","1338.18"
"9.80000","0.76321","1363.74"
"10.00000","0.78055","1390.59"
"10.20000","0.79677","1416.36"
"10.40000","0.81330","1442.54"
"10.60000","0.83024","1468.95"
"10.80000","0.84707","1496.49"
"11.00000","0.86340","1522.33"
"11.20000","0.87983","1547.32"
"11.40000","0.89686","1574.03"
"11.60000","0.91349","1600.42"
"11.80000","0.92982","1625.18"
"12.00000","0.94696","1652.12"
"12.20000","0.96339","1676.54"
"12.40000","0.97961","1701.03"
"12.60000","0.99675","1727.93"
"12.80000","1.01348","1752.78"
"13.00000","1.03021","1779.5"
"13.20000","1.04694","1804.84"
"13.40000","1.06357","1829.67"
"13.60000","1.08051","1854.96"
"13.80000","1.09653","1878.04"
"14.00000","1.11367","1906.43"
"14.20000","1.13030","1931.62"
"14.40000","1.14663","1955.16"
"14.60000","1.16316","1980.46"
"14.80000","1.18039","2005.03"
"15.00000","1.19692","2029.7"
"15.20000","1.21325","2054.27"
"15.40000","1.23019","2078.5"
"15.60000","1.24682","2103.3"
"15.80000","1.26304","2126.35"
"16.00000","1.27998","2150.69"
"16.20000","1.29711","2175.25"
"16.40000","1.31324","2199.62"
"16.60000","1.32997","2224.13"
"16.80000","1.34701","2249.61"
"17.00000","1.36364","2272.47"
"17.20000","1.37986","2295.65"
"17.40000","1.39690","2319.72"
"17.60000","1.41393","2344.31"
"17.80000","1.42986","2365.92"
"18.00000","1.44679","2390.03"
"18.20000","1.46342","2414.18"
"18.40000","1.48046","2437.05"
"18.60000","1.49618","2459.88"
"18.80000","1.51352","2485.14"
"19.00000","1.53035","2507.74"
"19.20000","1.54648","2530.32"
"19.40000","1.56351","2553.42"
"19.60000","1.58034","2575.68"
"19.80000","1.59667","2597.9"
"20.00000","1.61330","2620.85"
"20.20000","1.63024","2643.68"
"20.40000","1.64687","2665.73"
"20.60000","1.66320","2687.62"
"20.80000","1.68013","2710.65"
"21.00000","1.69706","2732.9"
"21.20000","1.71319","2754.98"
"21.40000","1.73012","2778.73"
"21.60000","1.74716","2800.62"
"21.80000","1.76328","2822.59"
"22.00000","1.78002","2844.17"
"22.20000","1.79685","2865.3"
"22.40000","1.81358","2888.03"
"22.60000","1.82991","2908.77"
"22.80000","1.84674","2930.47"
"23.00000","1.86378","2952.42"
"23.20000","1.88020","2972.46"
"23.40000","1.89653","2993.76"
"23.60000","1.91367","3015.7"
"23.80000","1.93020","3035.21"
"24.00000","1.94663","3056.54"
"24.20000","1.96376","3077.73"
"24.40000","1.98009","3099.36"
"24.60000","1.99692","3117.63"
"24.80000","2.01335","3137.39"
"25.00000","2.03019","3157.86"
"25.20000","2.04661","3178.69"
"25.40000","2.06314","3198.51"
"25.60000","2.08018","3218.72"
"25.80000","2.09691","3238.53"
"26.00000","2.11314","3258.19"
"26.20000","2.13017","3277.8"
"26.40000","2.14711","3299.21"
"26.60000","2.16333","3317.86"
"26.80000","2.17986","3336.4"
"27.00000","2.19680","3356.53"
"27.20000","2.21383","3377.23"
"27.40000","2.22986","3370.89"
"27.60000","2.24689","3223.69"
"27.80000","2.26382","3242.58"
"28.00000","2.28005","3260.57"
"28.20000","2.29648","3279.63"
"28.40000","2.31352","3299.05"
"28.60000","2.33005","3317.91"
"28.80000","2.34637","3336.49"
"29.00000","2.36361","3356.14"
"29.20000","2.37994","3374.08"
"29.40000","2.39687","3392.95"
"29.60000","2.41360","3410.55"
"29.80000","2.43024","3428.22"
"30.00000","2.44666","3445.24"
"30.20000","2.46319","3463.82"
"30.40000","2.48033","3480.16"
"30.60000","2.49696","3497.38"
"30.80000","2.51289","3513.62"
"31.00000","2.53022","3530.31"
"31.20000","2.54695","3546.9"
"31.40000","2.56308","3561.76"
"31.60000","2.58001","3577.16"
"31.80000","2.59695","3593.14"
"32.00000","2.61378","3477.97"
"32.20000","2.63001","3491.43"
"32.40000","2.64674","3507.18"
"32.60000","2.66398","3524.45"
"32.80000","2.67980","3540.26"
"33.00000","2.69694","3556.87"
"33.20000","2.71367","3572.13"
"33.40000","2.72989","3587.37"
"33.60000","2.74643","3602"
"33.80000","2.76356","3614.94"
"34.00000","2.77979","3627.95"
"34.20000","2.79652","3642.87"
"34.40000","2.81345","3657.32"
"34.60000","2.83029","3670.83"
"34.80000","2.84661","3683.43"
"35.00000","2.86335","3695.74"
"35.20000","2.88068","3708.63"
"35.40000","2.89701","3721.59"
"35.60000","2.91304","3734.18"
"35.80000","2.93068","3746.42"
"36.00000","2.94680","3758.29"
"36.20000","2.96323","3768.55"
"36.40000","2.97986","3779.94"
"36.60000","2.99670","3791.54"
"36.80000","3.01343","3801.67"
"37.00000","3.02996","3811.81"
"37.20000","3.04669","3822.27"
"37.40000","3.06372","3832.82"
"37.60000","3.07985","3842.33"
"37.80000","3.09688","3850.89"
"38.00000","3.11352","3859.33"
"38.20000","3.12994","3866.39"
"38.40000","3.14668","3874.52"
"38.60000","3.16381","3883.62"
"38.80000","3.18014","3889.99"
"39.00000","3.19677","3896.99"
"39.20000","3.21370","3903.43"
"39.40000","3.23023","3907.67"
"39.60000","3.24646","3912.89"
"39.80000","3.26329","3917.48"
"40.00000","3.28043","3920.02"
"40.20000","3.29686","3918.53"
"40.40000","3.31319","3914.1"
"40.60000","3.33052","3908.52"
"40.80000","3.34705","3894.89"
"41.00000","3.36308","3865.06"
"41.20000","3.38022","3726.97"
"41.24600","3.38425","3104.18"
"41.25400","3.38515","2310.22"
"41.25600","3.38536","2103.72"