File: Data_Processing/Tensile-Data/Sequence_43.csv
General : Start date,"10/29/2024 10:50 AM"
General : End date,"10/29/2024 10:51 AM"
Specimen notes : Specimen note 1,"Day 2, blue, 230, batch 2, seq 43"
Test : Rate 1,"5.00000",mm/min

Time,Extension,Load
(s),(mm),(N)
"0.00000","0.00000","0.07471"
"0.20000","0.00806","7.68195"
"0.40000","0.03165","51.94796"
"0.60000","0.04929","79.97307"
"0.80000","0.06642","109.391"
"1.00000","0.08305","136.539"
"1.20000","0.09999","163.958"
"1.40000","0.11702","191.665"
"1.60000","0.13355","218.464"
"1.80000","0.14988","244.201"
"2.00000","0.16671","271.183"
"2.20000","0.18365","298.071"
"2.40000","0.19987","323.96"
"2.60000","0.21671","349.064"
"2.80000","0.23364","375.736"
"3.00000","0.25007","401.441"
"3.20000","0.26650","426.137"
"3.40000","0.28333","451.691"
"3.60000","0.30006","476.742"
"3.80000","0.31649","499.887"
"4.00000","0.33343","525.751"
"4.20000","0.34996","550.685"
"4.40000","0.36689","574.38"
"4.60000","0.38322","597.904"
"4.80000","0.40045","622.872"
"5.00000","0.41698","645.199"
"5.20000","0.43311","666.908"
"5.40000","0.45025","690.19"
"5.60000","0.46698","712.415"
"5.80000","0.48331","733.882"
"6.00000","0.49973","756.355"
"6.20000","0.51677","778.909"
"6.40000","0.53340","800.536"
"6.60000","0.54973","820.857"
"6.80000","0.56686","842.535"
"7.00000","0.58349","863.186"
"7.20000","0.59982","882.801"
"7.40000","0.61666","903.766"
"7.60000","0.63369","925.58"
"7.80000","0.64992","944.488"
"8.00000","0.66675","964.294"
"8.20000","0.68318","983.299"
"8.40000","0.70031","1000.52"
"8.60000","0.71634","1017.2"
"8.80000","0.73348","1035.92"
"9.00000","0.75011","1052.43"
"9.20000","0.76623","1069.05"
"9.40000","0.78307","1086.64"
"9.60000","0.80020","1105.38"
"9.80000","0.81673","1122.41"
"10.00000","0.83336","1140.08"
"10.20000","0.85040","1157.48"
"10.40000","0.86703","1174.1"
"10.60000","0.88315","1190.77"
"10.80000","0.89999","1208.33"
"11.00000","0.91702","1225.17"
"11.20000","0.93335","1242.06"
"11.40000","0.94978","1258.69"
"11.60000","0.96701","1276.16"
"11.80000","0.98334","1293.18"
"12.00000","0.99977","1310.26"
"12.20000","1.01691","1327.11"
"12.40000","1.03364","1343.14"
"12.60000","1.04987","1358.85"
"12.80000","1.06660","1375.39"
"13.00000","1.08343","1393.22"
"13.20000","1.10026","1409.73"
"13.40000","1.11659","1425.46"
"13.60000","1.13373","1442.85"
"13.80000","1.15026","1458.95"
"14.00000","1.16638","1474.67"
"14.20000","1.18342","1490.35"
"14.40000","1.20005","1505.08"
"14.60000","1.21638","1521.2"
"14.80000","1.23291","1535.6"
"15.00000","1.25004","1552.4"
"15.20000","1.26688","1567.29"
"15.40000","1.28330","1582.36"
"15.60000","1.30004","1598.71"
"15.80000","1.31697","1613.08"
"16.00000","1.33330","1627.82"
"16.20000","1.35003","1643.69"
"16.40000","1.36727","1659.58"
"16.60000","1.38339","1674.57"
"16.80000","1.39992","1690.27"
"17.00000","1.41686","1705.4"
"17.20000","1.43339","1720.62"
"17.40000","1.44961","1734.34"
"17.60000","1.46665","1749.32"
"17.80000","1.48338","1764.25"
"18.00000","1.50021","1778.87"
"18.20000","1.51644","1793.73"
"18.40000","1.53358","1809.3"
"18.60000","1.55021","1825.32"
"18.80000","1.56653","1840.62"
"19.00000","1.58367","1856.28"
"19.20000","1.60020","1871.46"
"19.40000","1.61683","1886.56"
"19.60000","1.63326","1901.18"
"19.80000","1.65019","1916.58"
"20.00000","1.66672","1931.58"
"20.20000","1.68315","1945.7"
"20.40000","1.69999","1961.53"
"20.60000","1.71702","1977.96"
"20.80000","1.73305","1991.29"
"21.00000","1.75008","2007.58"
"21.20000","1.76701","2022.88"
"21.40000","1.78324","2036.68"
"21.60000","1.79977","2051.29"
"21.80000","1.81701","2067.89"
"22.00000","1.83354","2082.82"
"22.20000","1.84987","2098.51"
"22.40000","1.86660","2114.25"
"22.60000","1.88373","2128.28"
"22.80000","1.89986","2144.18"
"23.00000","1.91659","2158.56"
"23.20000","1.93352","2174.62"
"23.40000","1.95016","2189.28"
"23.60000","1.96628","2205.2"
"23.80000","1.98362","2219.29"
"24.00000","2.00005","2235.4"
"24.20000","2.01668","2250.27"
"24.40000","2.03361","2265.57"
"24.60000","2.05034","2281.52"
"24.80000","2.06647","2295.65"
"25.00000","2.08310","2310.83"
"25.20000","2.10024","2325.84"
"25.40000","2.11687","2340.56"
"25.60000","2.13299","2355.55"
"25.80000","2.15003","2369.94"
"26.00000","2.16696","2385.54"
"26.20000","2.18319","2400.35"
"26.40000","2.20002","2415.74"
"26.60000","2.21686","2431.27"
"26.80000","2.23359","2446.23"
"27.00000","2.24992","2459.91"
"27.20000","2.26675","2477"
"27.40000","2.28358","2491.34"
"27.60000","2.29981","2505.76"
"27.80000","2.31664","2520.4"
"28.00000","2.33347","2535.66"
"28.20000","2.35000","2549.85"
"28.40000","2.36643","2563.68"
"28.60000","2.38377","2579.22"
"28.80000","2.39990","2594.08"
"29.00000","2.41663","2608.54"
"29.20000","2.43346","2622.98"
"29.40000","2.45019","2638.22"
"29.60000","2.46662","2653.13"
"29.80000","2.48325","2667.48"
"30.00000","2.50029","2682.59"
"30.20000","2.51682","2697.58"
"30.40000","2.53304","2711.36"
"30.60000","2.55008","2727.19"
"30.80000","2.56681","2741.91"
"31.00000","2.58314","2755.88"
"31.20000","2.59997","2771.06"
"31.40000","2.61660","2787.3"
"31.60000","2.63354","2801.6"
"31.80000","2.65007","2815.88"
"32.00000","2.66670","2830.95"
"32.20000","2.68393","2845.38"
"32.40000","2.69996","2859.88"
"32.60000","2.71699","2874.49"
"32.80000","2.73352","2889.6"
"33.00000","2.75015","2903.13"
"33.20000","2.76648","2917.13"
"33.40000","2.78372","2932.18"
"33.60000","2.79985","2945.9"
"33.80000","2.81638","2960.31"
"34.00000","2.83341","2974.21"
"34.20000","2.85014","2988.5"
"34.40000","2.86637","3002.63"
"34.60000","2.88330","3018.38"
"34.80000","2.90044","3032.98"
"35.00000","2.91677","3046.89"
"35.20000","2.93309","3061.06"
"35.40000","2.95053","3075.87"
"35.60000","2.96686","3089.3"
"35.80000","2.98319","3103.83"
"36.00000","3.00012","3117.81"
"36.20000","3.01695","3131.54"
"36.40000","3.03318","3144.98"
"36.60000","3.04991","3159.53"
"36.80000","3.06644","3172.67"
"37.00000","3.08338","3186.72"
"37.20000","3.09961","3200.91"
"37.40000","3.11694","3214.14"
"37.60000","3.13357","3229.19"
"37.80000","3.15000","3242.48"
"38.00000","3.16684","3256.68"
"38.20000","3.18357","3270.8"
"38.40000","3.19990","3284.86"
"38.60000","3.21683","3298.8"
"38.80000","3.23356","3312.94"
"39.00000","3.24999","3326.29"
"39.20000","3.26652","3340.07"
"39.40000","3.28325","3353.6"
"39.60000","3.30029","3366.61"
"39.80000","3.31651","3380.5"
"40.00000","3.33314","3393.5"
"40.20000","3.35038","3408.53"
"40.40000","3.36661","3421.79"
"40.60000","3.38324","3435"
"40.80000","3.40027","3449.21"
"41.00000","3.41701","3463.06"
"41.20000","3.43323","3475.4"
"41.40000","3.44996","3488.83"
"41.60000","3.46690","3503.29"
"41.80000","3.48353","3515.56"
"42.00000","3.49976","3528.85"
"42.20000","3.51679","3541.83"
"42.40000","3.53352","3555.32"
"42.60000","3.54975","3567.49"
"42.80000","3.56699","3580.19"
"43.00000","3.58342","3592.34"
"43.20000","3.60015","3605.26"
"43.40000","3.61658","3617.85"
"43.60000","3.63361","3630.23"
"43.80000","3.65004","3643.02"
"44.00000","3.66657","3654.87"
"44.20000","3.68370","3667.25"
"44.40000","3.70034","3679.26"
"44.60000","3.71646","3690.93"
"44.80000","3.73330","3702.43"
"45.00000","3.75033","3715.67"
"45.20000","3.76666","3726.94"
"45.40000","3.78319","3737.75"
"45.60000","3.80012","3750.47"
"45.80000","3.81685","3761.76"
"46.00000","3.83318","3771.35"
"46.20000","3.85001","3783.16"
"46.40000","3.86705","3792.92"
"46.60000","3.88338","3803.62"
"46.80000","3.89971","3814.27"
"47.00000","3.91684","3822.93"
"47.20000","3.93327","3832.83"
"47.40000","3.94970","3841.37"
"47.60000","3.96704","3850.71"
"47.80000","3.98336","3858.24"
"48.00000","3.99989","3866.14"
"48.20000","4.01673","3873.34"
"48.40000","4.03366","3879.4"
"48.60000","4.04999","3885.24"
"48.80000","4.06662","3890.9"
"49.00000","4.08355","3895.27"
"49.20000","4.10039","3899.31"
"49.40000","4.11651","3901.84"
"49.60000","4.13355","3904.14"
"49.80000","4.15038","3903.16"
"50.00000","4.16641","3900.28"
"50.20000","4.18324","3897.19"
"50.40000","4.20027","3891.83"
"50.60000","4.21670","3880.57"
"50.80000","4.23313","3865.73"
"51.00000","4.24986","3843.51"
"51.20000","4.26710","3799.98"
"51.33600","4.27829","3446.71"
"51.34400","4.27899","2719.24"
"51.35000","4.27970","2083.37"