File: Data_Processing/Tensile-Data/Sequence_48.csv
General : Start date,"11/5/2024 8:28 AM"
General : End date,"11/5/2024 8:29 AM"
Specimen notes : Specimen note 1,"Day 3, black, 215, batch 19, seq 48"
Test : Rate 1,"5.00000",mm/min

Time,Extension,Load
(s),(mm),(N)
"0.00000","-0.00010","-0.05608"
"0.20000","0.01391","19.43253"
"0.40000","0.03407","59.31707"
"0.60000","0.05140","88.09985"
"0.80000","0.06824","115.16"
"1.00000","0.08517","143.056"
"1.20000","0.10200","170.648"
"1.40000","0.11823","197.245"
"1.60000","0.13506","224.943"
"1.80000","0.15210","252.951"
"2.00000","0.16812","278.951"
"2.20000","0.18506","306.975"
"2.40000","0.20179","334.124"
"2.60000","0.21832","360.622"
"2.80000","0.23505","386.627"
"3.00000","0.25188","413.361"
"3.20000","0.26882","440.186"
"3.40000","0.28504","464.218"
"3.60000","0.30188","488.237"
"3.80000","0.31861","513.732"
"4.00000","0.33524","538.537"
"4.20000","0.35137","560.094"
"4.40000","0.36860","584.954"
"4.60000","0.38523","608.674"
"4.80000","0.40156","630.453"
"5.00000","0.41850","651.999"
"5.20000","0.43482","673.477"
"5.40000","0.45186","695.672"
"5.60000","0.46829","715.17"
"5.80000","0.48542","735.795"
"6.00000","0.50205","755.867"
"6.20000","0.51828","775.352"
"6.40000","0.53501","795.305"
"6.60000","0.55205","815.881"
"6.80000","0.56807","832.334"
"7.00000","0.58491","852.348"
"7.20000","0.60184","871.621"
"7.40000","0.61807","889.233"
"7.60000","0.63470","906.381"
"7.80000","0.65173","926.112"
"8.00000","0.66866","943.062"
"8.20000","0.68489","959.354"
"8.40000","0.70173","976.496"
"8.60000","0.71876","994.086"
"8.80000","0.73509","1009.71"
"9.00000","0.75142","1027.7"
"9.20000","0.76845","1044.39"
"9.40000","0.78528","1061.77"
"9.60000","0.80131","1079.2"
"9.80000","0.81855","1095.81"
"10.00000","0.83508","1111.73"
"10.20000","0.85171","1128.58"
"10.40000","0.86824","1144.98"
"10.60000","0.88527","1160.93"
"10.80000","0.90170","1177.33"
"11.00000","0.91803","1192.83"
"11.20000","0.93516","1209.45"
"11.40000","0.95179","1225.73"
"11.60000","0.96832","1241.08"
"11.80000","0.98526","1257.43"
"12.00000","1.00229","1273.27"
"12.20000","1.01822","1288.18"
"12.40000","1.03515","1303.85"
"12.60000","1.05198","1319.9"
"12.80000","1.06851","1334.78"
"13.00000","1.08464","1350.77"
"13.20000","1.10178","1368.28"
"13.40000","1.11851","1383.96"
"13.60000","1.13473","1398.72"
"13.80000","1.15167","1415.21"
"14.00000","1.16870","1430.63"
"14.20000","1.18523","1445.47"
"14.40000","1.20156","1461.71"
"14.60000","1.21860","1478.33"
"14.80000","1.23513","1494.07"
"15.00000","1.25176","1508.64"
"15.20000","1.26829","1522.97"
"15.40000","1.28512","1538.78"
"15.60000","1.30175","1554.81"
"15.80000","1.31818","1569.7"
"16.00000","1.33521","1585.72"
"16.20000","1.35184","1599.9"
"16.40000","1.36827","1615.42"
"16.60000","1.38521","1632.05"
"16.80000","1.40184","1647.68"
"17.00000","1.41817","1662.94"
"17.20000","1.43530","1678.66"
"17.40000","1.45193","1695.14"
"17.60000","1.46856","1710.79"
"17.80000","1.48459","1723.83"
"18.00000","1.50162","1740.77"
"18.20000","1.51846","1757.83"
"18.40000","1.53458","1772.84"
"18.60000","1.55172","1789.37"
"18.80000","1.56855","1805.02"
"19.00000","1.58508","1821.17"
"19.20000","1.60151","1837.16"
"19.40000","1.61854","1852.84"
"19.60000","1.63518","1869.31"
"19.80000","1.65160","1884.81"
"20.00000","1.66844","1901.03"
"20.20000","1.68517","1916.67"
"20.40000","1.70160","1931.2"
"20.60000","1.71813","1947.71"
"20.80000","1.73536","1964.16"
"21.00000","1.75179","1979.65"
"21.20000","1.76832","1996.47"
"21.40000","1.78516","2012.71"
"21.60000","1.80199","2029.64"
"21.80000","1.81801","2045.24"
"22.00000","1.83505","2061.64"
"22.20000","1.85188","2079.66"
"22.40000","1.86841","2096.63"
"22.60000","1.88474","2113.12"
"22.80000","1.90198","2129.34"
"23.00000","1.91871","2146.11"
"23.20000","1.93463","2163.38"
"23.40000","1.95197","2179.05"
"23.60000","1.96860","2196"
"23.80000","1.98493","2212.69"
"24.00000","2.00166","2228.75"
"24.20000","2.01839","2246.72"
"24.40000","2.03523","2262.94"
"24.60000","2.05165","2278.47"
"24.80000","2.06869","2295.04"
"25.00000","2.08532","2311.58"
"25.20000","2.10155","2328.38"
"25.40000","2.11828","2344.13"
"25.60000","2.13551","2361.41"
"25.80000","2.15154","2377.83"
"26.00000","2.16827","2392.97"
"26.20000","2.18541","2408.92"
"26.40000","2.20164","2425.49"
"26.60000","2.21796","2440.95"
"26.80000","2.23510","2456.75"
"27.00000","2.25193","2474.08"
"27.20000","2.26836","2490.64"
"27.40000","2.28499","2505.77"
"27.60000","2.30193","2522.23"
"27.80000","2.31856","2538.72"
"28.00000","2.33488","2553.82"
"28.20000","2.35222","2570.17"
"28.40000","2.36855","2586.31"
"28.60000","2.38488","2602.99"
"28.80000","2.40161","2618.66"
"29.00000","2.41814","2634.98"
"29.20000","2.43497","2651.13"
"29.40000","2.45130","2665.41"
"29.60000","2.46854","2683.66"
"29.80000","2.48517","2700.12"
"30.00000","2.50160","2715.38"
"30.20000","2.51843","2732.05"
"30.40000","2.53516","2747.14"
"30.60000","2.55149","2762.29"
"30.80000","2.56842","2778.86"
"31.00000","2.58536","2794.31"
"31.20000","2.60169","2811.03"
"31.40000","2.61801","2825.95"
"31.60000","2.63535","2843.55"
"31.80000","2.65218","2858.54"
"32.00000","2.66821","2873.59"
"32.20000","2.68504","2891.88"
"32.40000","2.70187","2907.39"
"32.60000","2.71840","2923"
"32.80000","2.73463","2938.83"
"33.00000","2.75197","2955.75"
"33.20000","2.76840","2971.26"
"33.40000","2.78483","2985.69"
"33.60000","2.80176","3003.91"
"33.80000","2.81869","3019.33"
"34.00000","2.83522","3035.17"
"34.20000","2.85145","3051.86"
"34.40000","2.86869","3067.52"
"34.60000","2.88512","3083.93"
"34.80000","2.90124","3100.32"
"35.00000","2.91838","3117.49"
"35.20000","2.93521","3133.3"
"35.40000","2.95164","3148.7"
"35.60000","2.96847","3166.9"
"35.80000","2.98520","3181.41"
"36.00000","3.00173","3197.37"
"36.20000","3.01816","3213.39"
"36.40000","3.03520","3229.23"
"36.60000","3.05203","3245.43"
"36.80000","3.06816","3261"
"37.00000","3.08499","3278.01"
"37.20000","3.10223","3294.3"
"37.40000","3.11805","3310.48"
"37.60000","3.13498","3326.75"
"37.80000","3.15212","3341.43"
"38.00000","3.16855","3356.68"
"38.20000","3.18478","3372.51"
"38.40000","3.20191","3389.15"
"38.60000","3.21844","3405.38"
"38.80000","3.23507","3420.06"
"39.00000","3.25160","3436.08"
"39.20000","3.26874","3452.14"
"39.40000","3.28507","3466.85"
"39.60000","3.30160","3482.81"
"39.80000","3.31873","3497.78"
"40.00000","3.33486","3514.78"
"40.20000","3.35129","3529.03"
"40.40000","3.36842","3544.73"
"40.60000","3.38505","3559.7"
"40.80000","3.40148","3575.52"
"41.00000","3.41842","3589.9"
"41.20000","3.43535","3605.12"
"41.40000","3.45188","3619.78"
"41.60000","3.46811","3634.19"
"41.80000","3.48524","3650.62"
"42.00000","3.50197","3665.28"
"42.20000","3.51820","3680.26"
"42.40000","3.53524","3695.95"
"42.60000","3.55187","3709.64"
"42.80000","3.56850","3724.05"
"43.00000","3.58483","3737.09"
"43.20000","3.60166","3753.6"
"43.40000","3.61849","3767.42"
"43.60000","3.63502","3781.9"
"43.80000","3.65196","3795.48"
"44.00000","3.66859","3808.65"
"44.20000","3.68512","3823.09"
"44.40000","3.70155","3836.7"
"44.60000","3.71878","3850.02"
"44.80000","3.73501","3863.18"
"45.00000","3.75174","3877.26"
"45.20000","3.76847","3891.68"
"45.40000","3.78510","3904.42"
"45.60000","3.80123","3916.99"
"45.80000","3.81847","3931"
"46.00000","3.83520","3943.02"
"46.20000","3.85183","3956.51"
"46.40000","3.86806","3967.7"
"46.60000","3.88519","3981.01"
"46.80000","3.90202","3992.42"
"47.00000","3.91805","4003.77"
"47.20000","3.93518","4014.99"
"47.40000","3.95192","4026.53"
"47.60000","3.96825","4037.56"
"47.80000","3.98488","4048.65"
"48.00000","4.00191","4059.4"
"48.20000","4.01854","4070.37"
"48.40000","4.03497","4079.24"
"48.60000","4.05180","4089.28"
"48.80000","4.06853","4098.99"
"49.00000","4.08486","4106.84"
"49.20000","4.10170","4114.94"
"49.40000","4.11883","4122.33"
"49.60000","4.13496","4128.35"
"49.80000","4.15169","4133.96"
"50.00000","4.16872","4138.54"
"50.20000","4.18535","4142.26"
"50.40000","4.20148","4142.65"
"50.60000","4.21852","4143.84"
"50.80000","4.23535","4143.03"
"51.00000","4.25158","4140.91"
"51.20000","4.26801","4135.73"
"51.40000","4.28514","4131.49"
"51.60000","4.30177","4122.41"
"51.80000","4.31800","4111.36"
"52.00000","4.33544","4096.97"
"52.20000","4.35197","4077.53"
"52.40000","4.36819","4051.76"
"52.60000","4.38513","4016.4"
"52.80000","4.40186","3947.68"
"52.91800","4.41184","3461.89"
"52.92600","4.41264","2667.55"
"52.93000","4.41305","2225.07"