File: Data_Processing/Tensile-Data/Sequence_32.csv
General : Start date,"10/29/2024 10:25 AM"
General : End date,"10/29/2024 10:25 AM"
Specimen notes : Specimen note 1,"Day 2, blue, 215, batch 8, seq 32"
Test : Rate 1,"5.00000",mm/min

Time,Extension,Load
(s),(mm),(N)
"0.00000","0.00010","0.13382"
"0.20000","0.01643","22.61315"
"0.40000","0.03487","58.82217"
"0.60000","0.05211","88.07114"
"0.80000","0.06935","116.494"
"1.00000","0.08588","144.713"
"1.20000","0.10241","172.545"
"1.40000","0.11934","201.027"
"1.60000","0.13627","227.683"
"1.80000","0.15270","253.533"
"2.00000","0.16903","279.245"
"2.20000","0.18607","307.495"
"2.40000","0.20260","334.896"
"2.60000","0.21872","360.196"
"2.80000","0.23596","388.517"
"3.00000","0.25279","414.542"
"3.20000","0.26902","440.336"
"3.40000","0.28565","466.521"
"3.60000","0.30278","491.346"
"3.80000","0.31931","516.741"
"4.00000","0.33584","540.97"
"4.20000","0.35278","566.769"
"4.40000","0.36951","592.161"
"4.60000","0.38564","616.906"
"4.80000","0.40247","641.573"
"5.00000","0.41920","665.709"
"5.20000","0.43573","688.159"
"5.40000","0.45226","711.543"
"5.60000","0.46930","735.732"
"5.80000","0.48583","758.409"
"6.00000","0.50195","781.199"
"6.20000","0.51939","804.991"
"6.40000","0.53552","826.084"
"6.60000","0.55255","849.678"
"6.80000","0.56928","871.218"
"7.00000","0.58622","893.988"
"7.20000","0.60244","914.189"
"7.40000","0.61928","935.493"
"7.60000","0.63611","958.297"
"7.80000","0.65264","980.547"
"8.00000","0.66897","1002.17"
"8.20000","0.68570","1023.38"
"8.40000","0.70283","1044.57"
"8.60000","0.71896","1063.17"
"8.80000","0.73559","1082.24"
"9.00000","0.75263","1101.66"
"9.20000","0.76895","1121.09"
"9.40000","0.78569","1140.26"
"9.60000","0.80232","1160.44"
"9.80000","0.81965","1180.58"
"10.00000","0.83578","1199"
"10.20000","0.85241","1218.22"
"10.40000","0.86945","1238.02"
"10.60000","0.88608","1257.63"
"10.80000","0.90200","1275.52"
"11.00000","0.91924","1296.18"
"11.20000","0.93587","1314.86"
"11.40000","0.95220","1333.39"
"11.60000","0.96903","1351.7"
"11.80000","0.98576","1372.17"
"12.00000","1.00229","1390.98"
"12.20000","1.01902","1409.7"
"12.40000","1.03596","1429.61"
"12.60000","1.05279","1446.98"
"12.80000","1.06882","1464.06"
"13.00000","1.08585","1483.37"
"13.20000","1.10288","1501.69"
"13.40000","1.11891","1519.14"
"13.60000","1.13564","1537.1"
"13.80000","1.15278","1556.12"
"14.00000","1.16911","1574.25"
"14.20000","1.18553","1591.48"
"14.40000","1.20227","1609.95"
"14.60000","1.21950","1627.49"
"14.80000","1.23553","1642.96"
"15.00000","1.25236","1661.76"
"15.20000","1.26939","1679.31"
"15.40000","1.28582","1695.53"
"15.60000","1.30215","1712.5"
"15.80000","1.31979","1731.41"
"16.00000","1.33572","1747.23"
"16.20000","1.35235","1765.31"
"16.40000","1.36908","1783.15"
"16.60000","1.38601","1800.67"
"16.80000","1.40224","1818.11"
"17.00000","1.41887","1836.51"
"17.20000","1.43611","1854.77"
"17.40000","1.45254","1871.67"
"17.60000","1.46866","1887.93"
"17.80000","1.48620","1906.93"
"18.00000","1.50263","1923.49"
"18.20000","1.51896","1938.8"
"18.40000","1.53589","1957.26"
"18.60000","1.55283","1974.19"
"18.80000","1.56916","1990.7"
"19.00000","1.58569","2008.03"
"19.20000","1.60252","2025.54"
"19.40000","1.61945","2042.22"
"19.60000","1.63538","2059.04"
"19.80000","1.65251","2077.4"
"20.00000","1.66934","2094.04"
"20.20000","1.68567","2110.93"
"20.40000","1.70251","2127.87"
"20.60000","1.71944","2145.82"
"20.80000","1.73587","2161.78"
"21.00000","1.75240","2178.31"
"21.20000","1.76943","2195.77"
"21.40000","1.78606","2212.72"
"21.60000","1.80229","2230.46"
"21.80000","1.81902","2246.92"
"22.00000","1.83606","2263.48"
"22.20000","1.85239","2280.59"
"22.40000","1.86871","2297.27"
"22.60000","1.88585","2313.81"
"22.80000","1.90238","2330.52"
"23.00000","1.91901","2345.52"
"23.20000","1.93604","2361.73"
"23.40000","1.95288","2378.65"
"23.60000","1.96910","2394.8"
"23.80000","1.98574","2410.49"
"24.00000","2.00247","2426.87"
"24.20000","2.01950","2443.03"
"24.40000","2.03543","2458.58"
"24.60000","2.05256","2474.83"
"24.80000","2.06939","2490.75"
"25.00000","2.08542","2506.07"
"25.20000","2.10245","2522.74"
"25.40000","2.11929","2539.72"
"25.60000","2.13572","2554.02"
"25.80000","2.15245","2569.63"
"26.00000","2.16938","2586.09"
"26.20000","2.18591","2602.14"
"26.40000","2.20234","2617.64"
"26.60000","2.21917","2634.63"
"26.80000","2.23611","2650.84"
"27.00000","2.25233","2665.67"
"27.20000","2.26897","2682.21"
"27.40000","2.28610","2697.65"
"27.60000","2.30223","2713.51"
"27.80000","2.31876","2729.65"
"28.00000","2.33599","2746.14"
"28.20000","2.35262","2761.92"
"28.40000","2.36885","2776.67"
"28.60000","2.38599","2793.87"
"28.80000","2.40272","2809.84"
"29.00000","2.41935","2824.46"
"29.20000","2.43558","2840.03"
"29.40000","2.45281","2855.1"
"29.60000","2.46934","2871.01"
"29.80000","2.48567","2887.02"
"30.00000","2.50281","2902.61"
"30.20000","2.51914","2917.67"
"30.40000","2.53556","2933.21"
"30.60000","2.55220","2948.53"
"30.80000","2.56923","2964.25"
"31.00000","2.58586","2980.12"
"31.20000","2.60239","2995.35"
"31.40000","2.61932","3011.18"
"31.60000","2.63606","3025.64"
"31.80000","2.65208","3041.08"
"32.00000","2.66932","3057.37"
"32.20000","2.68635","3072.22"
"32.40000","2.70238","3086.85"
"32.60000","2.71891","3101.75"
"32.80000","2.73604","3116.96"
"33.00000","2.75257","3131.79"
"33.20000","2.76890","3146.34"
"33.40000","2.78563","3161.92"
"33.60000","2.80237","3176.17"
"33.80000","2.81890","3191.3"
"34.00000","2.83573","3205.92"
"34.20000","2.85276","3220.84"
"34.40000","2.86939","3236.03"
"34.60000","2.88532","3249.15"
"34.80000","2.90276","3265.08"
"35.00000","2.91919","3279.44"
"35.20000","2.93602","3294.68"
"35.40000","2.95275","3309.15"
"35.60000","2.96918","3323.17"
"35.80000","2.98561","3337.01"
"36.00000","3.00224","3351.82"
"36.20000","3.01917","3366.67"
"36.40000","3.03601","3380.93"
"36.60000","3.05223","3394.05"
"36.80000","3.06937","3409.06"
"37.00000","3.08610","3424.36"
"37.20000","3.10233","3437.66"
"37.40000","3.11906","3452.72"
"37.60000","3.13599","3466.38"
"37.80000","3.15262","3480.17"
"38.00000","3.16895","3493.76"
"38.20000","3.18558","3508.2"
"38.40000","3.20282","3523.04"
"38.60000","3.21884","3536.8"
"38.80000","3.23588","3551.29"
"39.00000","3.25251","3564.6"
"39.20000","3.26924","3577.19"
"39.40000","3.28547","3591"
"39.60000","3.30281","3606.02"
"39.80000","3.31903","3617.61"
"40.00000","3.33566","3631.07"
"40.20000","3.35280","3644.88"
"40.40000","3.36933","3658.47"
"40.60000","3.38556","3671.37"
"40.80000","3.40229","3683.79"
"41.00000","3.41963","3698.72"
"41.20000","3.43585","3709.86"
"41.40000","3.45218","3723.13"
"41.60000","3.46942","3737.14"
"41.80000","3.48615","3749.4"
"42.00000","3.50228","3762.2"
"42.20000","3.51911","3774.73"
"42.40000","3.53594","3787.92"
"42.60000","3.55257","3800.35"
"42.80000","3.56890","3810.57"
"43.00000","3.58583","3824.13"
"43.20000","3.60287","3836.89"
"43.40000","3.61889","3846.93"
"43.60000","3.63603","3859.18"
"43.80000","3.65256","3870.08"
"44.00000","3.66889","3881.17"
"44.20000","3.68562","3892.17"
"44.40000","3.70275","3904.13"
"44.60000","3.71888","3915.43"
"44.80000","3.73571","3925.12"
"45.00000","3.75275","3936.82"
"45.20000","3.76948","3947.28"
"45.40000","3.78571","3957.88"
"45.60000","3.80234","3967.17"
"45.80000","3.81927","3978.77"
"46.00000","3.83580","3989"
"46.20000","3.85233","3996.93"
"46.40000","3.86987","4007.69"
"46.60000","3.88580","4015.03"
"46.80000","3.90223","3981.99"
"47.00000","3.91926","3995.71"
"47.20000","3.93599","4007.87"
"47.40000","3.95232","4017.79"
"47.60000","3.96915","4025.92"
"47.80000","3.98588","4033.92"
"48.00000","4.00282","4043.72"
"48.20000","4.01874","4052.17"
"48.40000","4.03618","4061.6"
"48.60000","4.05281","4068.29"
"48.80000","4.06914","4073.54"
"49.00000","4.08577","4077.61"
"49.20000","4.10250","4081.19"
"49.40000","4.11893","4085.43"
"49.60000","4.13566","4086.88"
"49.80000","4.15240","4089.43"
"50.00000","4.16933","4089.48"
"50.20000","4.18556","4087.09"
"50.40000","4.20249","4084.75"
"50.60000","4.21962","4080.86"
"50.80000","4.23565","4071.43"
"51.00000","4.25228","4058.4"
"51.20000","4.26962","4038.49"
"51.40000","4.28595","3991.99"
"51.50600","4.29462","3610.97"
"51.51400","4.29542","2831.53"
"51.51800","4.29582","2381.68"