File: Data_Processing/Tensile-Data/Sequence_46.csv
General : Start date,"10/29/2024 10:57 AM"
General : End date,"10/29/2024 10:58 AM"
Specimen notes : Specimen note 1,"Day 2, green, 230, batch 3, seq 46"
Test : Rate 1,"5.00000",mm/min

Time,Extension,Load
(s),(mm),(N)
"0.00000","0.00000","-0.31089"
"0.20000","0.00716","-0.03430"
"0.40000","0.02913","34.44313"
"0.60000","0.04828","70.73913"
"0.80000","0.06652","100.133"
"1.00000","0.08295","126.507"
"1.20000","0.10029","153.446"
"1.40000","0.11682","179.865"
"1.60000","0.13325","205.831"
"1.80000","0.14998","232.629"
"2.00000","0.16712","259.405"
"2.20000","0.18365","284.999"
"2.40000","0.19987","310.703"
"2.60000","0.21701","337.13"
"2.80000","0.23374","363.132"
"3.00000","0.24987","387.754"
"3.20000","0.26690","413.771"
"3.40000","0.28383","439.234"
"3.60000","0.29996","463.678"
"3.80000","0.31669","487.085"
"4.00000","0.33353","512.539"
"4.20000","0.34996","537.548"
"4.40000","0.36649","560.444"
"4.60000","0.38362","586.794"
"4.80000","0.40015","610.441"
"5.00000","0.41678","634.207"
"5.20000","0.43341","656.676"
"5.40000","0.45055","680.382"
"5.60000","0.46708","702.077"
"5.80000","0.48320","723.229"
"6.00000","0.50034","745.627"
"6.20000","0.51687","768.361"
"6.40000","0.53320","788.382"
"6.60000","0.55003","809.927"
"6.80000","0.56696","831.887"
"7.00000","0.58339","851.492"
"7.20000","0.59992","871.622"
"7.40000","0.61696","891.954"
"7.60000","0.63359","911.123"
"7.80000","0.65012","930.608"
"8.00000","0.66685","950.518"
"8.20000","0.68368","970.288"
"8.40000","0.69991","988.543"
"8.60000","0.71684","1008.97"
"8.80000","0.73327","1027.88"
"9.00000","0.75021","1046.35"
"9.20000","0.76643","1064.61"
"9.40000","0.78337","1081.79"
"9.60000","0.80010","1097.09"
"9.80000","0.81623","1112.83"
"10.00000","0.83346","1130.66"
"10.20000","0.84999","1145.97"
"10.40000","0.86693","1161.65"
"10.60000","0.88336","1177.9"
"10.80000","0.90039","1195.63"
"11.00000","0.91712","1211.16"
"11.20000","0.93325","1226.22"
"11.40000","0.95018","1242.31"
"11.60000","0.96711","1258.23"
"11.80000","0.98334","1273.99"
"12.00000","0.99977","1289.72"
"12.20000","1.01711","1306.64"
"12.40000","1.03344","1321.74"
"12.60000","1.04966","1337.15"
"12.80000","1.06680","1352.81"
"13.00000","1.08363","1367.09"
"13.20000","1.09986","1381.16"
"13.40000","1.11659","1395.82"
"13.60000","1.13373","1411.66"
"13.80000","1.15016","1426.72"
"14.00000","1.16659","1441.58"
"14.20000","1.18372","1457.33"
"14.40000","1.20035","1470.37"
"14.60000","1.21638","1486.62"
"14.80000","1.23371","1501.19"
"15.00000","1.25014","1515.29"
"15.20000","1.26647","1530.33"
"15.40000","1.28320","1545.65"
"15.60000","1.30014","1560.03"
"15.80000","1.31667","1575.5"
"16.00000","1.33330","1591.37"
"16.20000","1.35033","1606.42"
"16.40000","1.36706","1620.01"
"16.60000","1.38319","1634.97"
"16.80000","1.40002","1650.29"
"17.00000","1.41716","1664.55"
"17.20000","1.43329","1679.8"
"17.40000","1.44992","1693.79"
"17.60000","1.46705","1709.6"
"17.80000","1.48358","1724.13"
"18.00000","1.49981","1737.53"
"18.20000","1.51684","1754.2"
"18.40000","1.53368","1769.16"
"18.60000","1.54990","1783.64"
"18.80000","1.56653","1798.25"
"19.00000","1.58367","1813.33"
"19.20000","1.60020","1828.88"
"19.40000","1.61653","1842.62"
"19.60000","1.63386","1859.03"
"19.80000","1.65009","1872.83"
"20.00000","1.66682","1888.12"
"20.20000","1.68346","1902.81"
"20.40000","1.70029","1917.52"
"20.60000","1.71662","1931.78"
"20.80000","1.73315","1946.55"
"21.00000","1.75028","1961.74"
"21.20000","1.76701","1977.23"
"21.40000","1.78314","1990.17"
"21.60000","1.80038","2006.53"
"21.80000","1.81701","2021.15"
"22.00000","1.83334","2035.9"
"22.20000","1.84997","2051.58"
"22.40000","1.86700","2066.5"
"22.60000","1.88363","2080.97"
"22.80000","1.89986","2095.4"
"23.00000","1.91669","2110.1"
"23.20000","1.93383","2124.98"
"23.40000","1.94995","2140.08"
"23.60000","1.96669","2155.26"
"23.80000","1.98342","2169.92"
"24.00000","2.00015","2185.46"
"24.20000","2.01648","2198.46"
"24.40000","2.03371","2213.83"
"24.60000","2.05024","2229.49"
"24.80000","2.06677","2243.81"
"25.00000","2.08381","2258.86"
"25.20000","2.10034","2274.37"
"25.40000","2.11657","2287.83"
"25.60000","2.13299","2302.32"
"25.80000","2.15033","2317.07"
"26.00000","2.16686","2331.28"
"26.20000","2.18289","2344.78"
"26.40000","2.20012","2361.18"
"26.60000","2.21696","2375.13"
"26.80000","2.23318","2390.03"
"27.00000","2.25022","2405.43"
"27.20000","2.26695","2420.07"
"27.40000","2.28358","2435.17"
"27.60000","2.30011","2450.3"
"27.80000","2.31694","2465.08"
"28.00000","2.33388","2480.05"
"28.20000","2.34970","2495.02"
"28.40000","2.36694","2509.4"
"28.60000","2.38357","2524.9"
"28.80000","2.39980","2539.01"
"29.00000","2.41653","2552.43"
"29.20000","2.43376","2567.49"
"29.40000","2.45009","2582.42"
"29.60000","2.46672","2597.28"
"29.80000","2.48356","2611.29"
"30.00000","2.50029","2626.05"
"30.20000","2.51672","2640.71"
"30.40000","2.53345","2656.42"
"30.60000","2.55028","2670.86"
"30.80000","2.56651","2685.55"
"31.00000","2.58314","2699.28"
"31.20000","2.60058","2715.15"
"31.40000","2.61680","2728.73"
"31.60000","2.63313","2743.64"
"31.80000","2.65007","2759.16"
"32.00000","2.66680","2773.01"
"32.20000","2.68353","2788.73"
"32.40000","2.70016","2802.2"
"32.60000","2.71689","2817.43"
"32.80000","2.73393","2831.92"
"33.00000","2.74995","2846.58"
"33.20000","2.76719","2861.9"
"33.40000","2.78332","2875.29"
"33.60000","2.80015","2890.7"
"33.80000","2.81688","2905.08"
"34.00000","2.83361","2919.75"
"34.20000","2.84994","2934.43"
"34.40000","2.86647","2947.3"
"34.60000","2.88340","2962.59"
"34.80000","2.90014","2977.52"
"35.00000","2.91677","2990.83"
"35.20000","2.93350","3005.12"
"35.40000","2.95043","3019.58"
"35.60000","2.96656","3034.49"
"35.80000","2.98339","3048.94"
"36.00000","3.00053","3063.93"
"36.20000","3.01685","3077.69"
"36.40000","3.03328","3092.13"
"36.60000","3.05012","3106.1"
"36.80000","3.06715","3120.83"
"37.00000","3.08298","3134.48"
"37.20000","3.10001","3148.97"
"37.40000","3.11644","3162.17"
"37.60000","3.13337","3177.28"
"37.80000","3.14960","3189.84"
"38.00000","3.16704","3204.97"
"38.20000","3.18377","3219.25"
"38.40000","3.19979","3231.6"
"38.60000","3.21693","3246.97"
"38.80000","3.23356","3260.24"
"39.00000","3.24999","3274.22"
"39.20000","3.26682","3288.14"
"39.40000","3.28376","3301.34"
"39.60000","3.30008","3315.43"
"39.80000","3.31651","3328.08"
"40.00000","3.33345","3343.38"
"40.20000","3.35038","3355.51"
"40.40000","3.36641","3368.56"
"40.60000","3.38334","3382.21"
"40.80000","3.40037","3396.71"
"41.00000","3.41650","3409.14"
"41.20000","3.43333","3422.69"
"41.40000","3.45037","3436.89"
"41.60000","3.46700","3448.79"
"41.80000","3.48323","3462.62"
"42.00000","3.50006","3475.09"
"42.20000","3.51709","3489.09"
"42.40000","3.53332","3502.57"
"42.60000","3.54995","3515.41"
"42.80000","3.56699","3528.89"
"43.00000","3.58362","3540.54"
"43.20000","3.59974","3553.15"
"43.40000","3.61728","3565.65"
"43.60000","3.63341","3578.48"
"43.80000","3.65014","3590.94"
"44.00000","3.66677","3602.72"
"44.20000","3.68370","3615.14"
"44.40000","3.69993","3627.07"
"44.60000","3.71656","3638.2"
"44.80000","3.73380","3650.53"
"45.00000","3.75023","3663.35"
"45.20000","3.76636","3673.73"
"45.40000","3.78369","3685.94"
"45.60000","3.80052","3698"
"45.80000","3.81665","3708.9"
"46.00000","3.83338","3719.59"
"46.20000","3.85022","3730.31"
"46.40000","3.86705","3741.73"
"46.60000","3.88318","3750.88"
"46.80000","3.90001","3761.05"
"47.00000","3.91704","3770.62"
"47.20000","3.93327","3779.15"
"47.40000","3.95010","3789.72"
"47.60000","3.96693","3797.16"
"47.80000","3.98346","3805.06"
"48.00000","3.99979","3812.27"
"48.20000","4.01713","3820.47"
"48.40000","4.03336","3826.45"
"48.60000","4.04999","3832.45"
"48.80000","4.06682","3837.97"
"49.00000","4.08365","3842.84"
"49.20000","4.10008","3845.88"
"49.40000","4.11661","3848.46"
"49.60000","4.13365","3848.97"
"49.80000","4.15018","3848.99"
"50.00000","4.16651","3846.02"
"50.20000","4.18374","3841.56"
"50.40000","4.20037","3834.45"
"50.60000","4.21650","3822.57"
"50.80000","4.23333","3806.92"
"51.00000","4.25037","3784.87"
"51.20000","4.26680","3748.66"
"51.40000","4.28323","3684.28"
"51.51800","4.29310","3257.98"
"51.52600","4.29391","2518.91"
"51.53000","4.29441","2104.36"