File: Data_Processing/Tensile-Data/Sequence_41.csv
General : Start date,"10/29/2024 10:47 AM"
General : End date,"10/29/2024 10:47 AM"
Specimen notes : Specimen note 1,"Day 2, black, 215, batch 11, seq 41"
Test : Rate 1,"5.00000",mm/min

Time,Extension,Load
(s),(mm),(N)
"0.00000","0.00000","0.59158"
"0.20000","0.01078","13.18831"
"0.40000","0.03256","54.67516"
"0.60000","0.04949","83.31925"
"0.80000","0.06673","112.033"
"1.00000","0.08376","140.716"
"1.20000","0.10049","167.848"
"1.40000","0.11672","194.577"
"1.60000","0.13385","223.355"
"1.80000","0.15038","250.764"
"2.00000","0.16671","276.399"
"2.20000","0.18375","304.02"
"2.40000","0.20068","331.03"
"2.60000","0.21661","355.647"
"2.80000","0.23344","382.185"
"3.00000","0.25017","408.532"
"3.20000","0.26670","433.887"
"3.40000","0.28323","459.065"
"3.60000","0.30026","485.907"
"3.80000","0.31700","511.441"
"4.00000","0.33332","535.657"
"4.20000","0.35046","561.446"
"4.40000","0.36729","586.448"
"4.60000","0.38362","611.193"
"4.80000","0.39995","634.755"
"5.00000","0.41718","659.648"
"5.20000","0.43361","683.347"
"5.40000","0.44984","704.784"
"5.60000","0.46698","729.951"
"5.80000","0.48371","753.082"
"6.00000","0.49994","774.182"
"6.20000","0.51667","797.138"
"6.40000","0.53370","819.837"
"6.60000","0.55023","841.396"
"6.80000","0.56666","862.448"
"7.00000","0.58380","883.516"
"7.20000","0.60053","904.538"
"7.40000","0.61666","924.514"
"7.60000","0.63359","944.654"
"7.80000","0.65012","965.259"
"8.00000","0.66685","985.693"
"8.20000","0.68328","1004.85"
"8.40000","0.70021","1026.23"
"8.60000","0.71674","1045.35"
"8.80000","0.73287","1064.26"
"9.00000","0.75031","1083.72"
"9.20000","0.76664","1102.78"
"9.40000","0.78357","1122.61"
"9.60000","0.80030","1139.67"
"9.80000","0.81713","1159.56"
"10.00000","0.83366","1177.88"
"10.20000","0.85009","1195.67"
"10.40000","0.86703","1214.03"
"10.60000","0.88376","1232.98"
"10.80000","0.90019","1251.17"
"11.00000","0.91672","1268.31"
"11.20000","0.93375","1284.14"
"11.40000","0.94988","1300.48"
"11.60000","0.96651","1315.16"
"11.80000","0.98354","1333.01"
"12.00000","1.00028","1348.07"
"12.20000","1.01660","1363.42"
"12.40000","1.03344","1379.32"
"12.60000","1.05067","1395.25"
"12.80000","1.06680","1410.1"
"13.00000","1.08353","1425.09"
"13.20000","1.10036","1439.94"
"13.40000","1.11699","1455.37"
"13.60000","1.13312","1470.66"
"13.80000","1.15036","1486.8"
"14.00000","1.16689","1502.4"
"14.20000","1.18312","1516.36"
"14.40000","1.19995","1532.8"
"14.60000","1.21678","1548.51"
"14.80000","1.23341","1564.04"
"15.00000","1.25004","1580.2"
"15.20000","1.26718","1595.83"
"15.40000","1.28391","1611.28"
"15.60000","1.29983","1626.12"
"15.80000","1.31697","1642.25"
"16.00000","1.33380","1657.32"
"16.20000","1.35013","1673.51"
"16.40000","1.36666","1688.25"
"16.60000","1.38380","1703.54"
"16.80000","1.40023","1719.16"
"17.00000","1.41645","1733.33"
"17.20000","1.43339","1749.86"
"17.40000","1.45062","1764.89"
"17.60000","1.46645","1780.24"
"17.80000","1.48348","1795.55"
"18.00000","1.50041","1812.28"
"18.20000","1.51694","1828.89"
"18.40000","1.53327","1843.08"
"18.60000","1.55061","1859.14"
"18.80000","1.56694","1873.46"
"19.00000","1.58337","1888.89"
"19.20000","1.60020","1904.2"
"19.40000","1.61713","1919.6"
"19.60000","1.63326","1933.38"
"19.80000","1.64979","1949.13"
"20.00000","1.66713","1965.23"
"20.20000","1.68376","1979.51"
"20.40000","1.69978","1994.49"
"20.60000","1.71732","2011.07"
"20.80000","1.73355","2025.36"
"21.00000","1.74998","2041.23"
"21.20000","1.76701","2056.62"
"21.40000","1.78395","2072.37"
"21.60000","1.80007","2087.51"
"21.80000","1.81681","2102.41"
"22.00000","1.83354","2118.4"
"22.20000","1.85047","2132.77"
"22.40000","1.86650","2147.61"
"22.60000","1.88363","2164.1"
"22.80000","1.90026","2179.46"
"23.00000","1.91649","2193.97"
"23.20000","1.93342","2210.12"
"23.40000","1.95046","2224.94"
"23.60000","1.96689","2239.96"
"23.80000","1.98352","2254.76"
"24.00000","2.00065","2271.58"
"24.20000","2.01708","2285.38"
"24.40000","2.03331","2300.82"
"24.60000","2.05014","2315.9"
"24.80000","2.06708","2331.61"
"25.00000","2.08340","2346.2"
"25.20000","2.09973","2360.5"
"25.40000","2.11677","2376.18"
"25.60000","2.13350","2391.78"
"25.80000","2.15013","2406.73"
"26.00000","2.16706","2423.01"
"26.20000","2.18390","2436.7"
"26.40000","2.20012","2452.82"
"26.60000","2.21675","2467.73"
"26.80000","2.23339","2483.49"
"27.00000","2.25042","2498.94"
"27.20000","2.26645","2513.95"
"27.40000","2.28358","2530.29"
"27.60000","2.30041","2544.83"
"27.80000","2.31654","2558.56"
"28.00000","2.33357","2574.53"
"28.20000","2.35031","2588.98"
"28.40000","2.36684","2604"
"28.60000","2.38357","2618.8"
"28.80000","2.40050","2635.2"
"29.00000","2.41703","2649.06"
"29.20000","2.43336","2665.3"
"29.40000","2.45019","2681.11"
"29.60000","2.46713","2696.83"
"29.80000","2.48335","2711.34"
"30.00000","2.49998","2725.89"
"30.20000","2.51702","2741.16"
"30.40000","2.53345","2755.85"
"30.60000","2.54988","2769.64"
"30.80000","2.56691","2786.1"
"31.00000","2.58364","2801.94"
"31.20000","2.60007","2816.02"
"31.40000","2.61680","2831.82"
"31.60000","2.63394","2847.11"
"31.80000","2.65047","2861.34"
"32.00000","2.66680","2876.25"
"32.20000","2.68383","2890.53"
"32.40000","2.70026","2904.89"
"32.60000","2.71669","2920.72"
"32.80000","2.73372","2935.53"
"33.00000","2.75005","2950.22"
"33.20000","2.76668","2964.58"
"33.40000","2.78321","2979.07"
"33.60000","2.80035","2995.46"
"33.80000","2.81688","3009.22"
"34.00000","2.83331","3024.51"
"34.20000","2.85024","3039.49"
"34.40000","2.86697","3053.17"
"34.60000","2.88320","3067.42"
"34.80000","2.90034","3083.3"
"35.00000","2.91737","3096.97"
"35.20000","2.93330","3111.71"
"35.40000","2.95013","3126.77"
"35.60000","2.96706","3140.82"
"35.80000","2.98379","3155.15"
"36.00000","2.99982","3168.04"
"36.20000","3.01665","3183.35"
"36.40000","3.03338","3197.47"
"36.60000","3.04991","3212.68"
"36.80000","3.06675","3226.73"
"37.00000","3.08368","3240.81"
"37.20000","3.10041","3255.03"
"37.40000","3.11654","3269.58"
"37.60000","3.13408","3283.8"
"37.80000","3.15010","3297.76"
"38.00000","3.16684","3311.87"
"38.20000","3.18367","3326.55"
"38.40000","3.20040","3340.18"
"38.60000","3.21663","3353.27"
"38.80000","3.23326","3367.81"
"39.00000","3.25029","3380.35"
"39.20000","3.26692","3394.33"
"39.40000","3.28325","3407.7"
"39.60000","3.30029","3421.65"
"39.80000","3.31702","3435.47"
"40.00000","3.33335","3448.97"
"40.20000","3.35018","3463.45"
"40.40000","3.36711","3477.01"
"40.60000","3.38354","3490.2"
"40.80000","3.40007","3502.55"
"41.00000","3.41670","3516.67"
"41.20000","3.43394","3530.37"
"41.40000","3.44986","3543.49"
"41.60000","3.46690","3556.23"
"41.80000","3.48363","3569.8"
"42.00000","3.50026","3582.15"
"42.20000","3.51669","3594.81"
"42.40000","3.53403","3609.28"
"42.60000","3.55025","3621.32"
"42.80000","3.56668","3633.7"
"43.00000","3.58372","3645.97"
"43.20000","3.60035","3658.27"
"43.40000","3.61668","3670.05"
"43.60000","3.63331","3681.57"
"43.80000","3.65064","3695.23"
"44.00000","3.66707","3707.05"
"44.20000","3.68310","3718.3"
"44.40000","3.70044","3730.34"
"44.60000","3.71717","3742.19"
"44.80000","3.73330","3754.33"
"45.00000","3.75003","3764.81"
"45.20000","3.76696","3776.79"
"45.40000","3.78359","3788.34"
"45.60000","3.80002","3798.24"
"45.80000","3.81675","3808.83"
"46.00000","3.83379","3819.73"
"46.20000","3.84991","3830.22"
"46.40000","3.86695","3840.23"
"46.60000","3.88358","3849.95"
"46.80000","3.90011","3860.07"
"47.00000","3.91664","3869.48"
"47.20000","3.93377","3879.14"
"47.40000","3.94990","3886.54"
"47.60000","3.96673","3896.21"
"47.80000","3.98387","3904.25"
"48.00000","4.00040","3912.65"
"48.20000","4.01673","3920.09"
"48.40000","4.03346","3926.87"
"48.60000","4.05049","3933.27"
"48.80000","4.06692","3938.25"
"49.00000","4.08335","3943.79"
"49.20000","4.10069","3948.62"
"49.40000","4.11671","3951.76"
"49.60000","4.13314","3953.37"
"49.80000","4.15038","3955.44"
"50.00000","4.16711","3954.36"
"50.20000","4.18344","3949.77"
"50.40000","4.20007","3942.7"
"50.60000","4.21680","3931.91"
"50.80000","4.23384","3910.31"
"51.00000","4.24996","3860.47"
"51.12200","4.26055","3465.29"
"51.13000","4.26135","2709.77"
"51.13400","4.26176","2275.12"