File: Data_Processing/Tensile-Data/Sequence_54.csv
General : Start date,"11/5/2024 8:42 AM"
General : End date,"11/5/2024 8:43 AM"
Specimen notes : Specimen note 1,"Day 3, red, 230, batch 17, seq 54"
Test : Rate 1,"5.00000",mm/min

Time,Extension,Load
(s),(mm),(N)
"0.00000","0.00000","-0.41791"
"0.20000","0.01028","12.13102"
"0.40000","0.03215","57.48927"
"0.60000","0.04959","91.56476"
"0.80000","0.06662","122.61"
"1.00000","0.08326","151.718"
"1.20000","0.10039","182.83"
"1.40000","0.11692","210.33"
"1.60000","0.13315","238.936"
"1.80000","0.15048","267.92"
"2.00000","0.16691","295.329"
"2.20000","0.18344","323.576"
"2.40000","0.20018","352.075"
"2.60000","0.21701","381.278"
"2.80000","0.23364","409.691"
"3.00000","0.25017","438.636"
"3.20000","0.26690","465.692"
"3.40000","0.28373","493.599"
"3.60000","0.29986","518.836"
"3.80000","0.31679","546.177"
"4.00000","0.33393","573.7"
"4.20000","0.34985","599.753"
"4.40000","0.36679","626.963"
"4.60000","0.38352","654.144"
"4.80000","0.40005","680.21"
"5.00000","0.41688","706.369"
"5.20000","0.43372","731.815"
"5.40000","0.45045","757.229"
"5.60000","0.46678","782.134"
"5.80000","0.48371","806.427"
"6.00000","0.50034","831.95"
"6.20000","0.51697","856.497"
"6.40000","0.53320","881.263"
"6.60000","0.55033","904.099"
"6.80000","0.56686","927.861"
"7.00000","0.58319","949.899"
"7.20000","0.60033","973.513"
"7.40000","0.61655","995.615"
"7.60000","0.63359","1019.28"
"7.80000","0.65002","1040.4"
"8.00000","0.66725","1064.19"
"8.20000","0.68368","1085.28"
"8.40000","0.70001","1106.49"
"8.60000","0.71684","1129.51"
"8.80000","0.73368","1149.24"
"9.00000","0.74990","1169.75"
"9.20000","0.76664","1190.58"
"9.40000","0.78357","1211.85"
"9.60000","0.79990","1233.02"
"9.80000","0.81653","1252.79"
"10.00000","0.83346","1273.68"
"10.20000","0.85050","1294.05"
"10.40000","0.86662","1311.23"
"10.60000","0.88346","1330.43"
"10.80000","0.90049","1347.81"
"11.00000","0.91692","1366.74"
"11.20000","0.93325","1383.39"
"11.40000","0.95008","1401.67"
"11.60000","0.96701","1419.98"
"11.80000","0.98314","1438.77"
"12.00000","1.00028","1457.04"
"12.20000","1.01681","1474.77"
"12.40000","1.03354","1491.24"
"12.60000","1.05007","1508.19"
"12.80000","1.06700","1524.58"
"13.00000","1.08343","1540.29"
"13.20000","1.09976","1556.39"
"13.40000","1.11689","1574.7"
"13.60000","1.13353","1592.18"
"13.80000","1.15006","1607.98"
"14.00000","1.16709","1624.48"
"14.20000","1.18402","1643.17"
"14.40000","1.19995","1658.29"
"14.60000","1.21678","1675.16"
"14.80000","1.23371","1693.47"
"15.00000","1.25034","1709.84"
"15.20000","1.26637","1726.71"
"15.40000","1.28361","1744.66"
"15.60000","1.30044","1761.53"
"15.80000","1.31647","1778.35"
"16.00000","1.33340","1796.5"
"16.20000","1.35043","1813.2"
"16.40000","1.36696","1830.56"
"16.60000","1.38329","1847.08"
"16.80000","1.40043","1864.99"
"17.00000","1.41686","1880.71"
"17.20000","1.43349","1897.95"
"17.40000","1.45002","1915.31"
"17.60000","1.46685","1931.85"
"17.80000","1.48348","1948.29"
"18.00000","1.50001","1965.45"
"18.20000","1.51705","1983.23"
"18.40000","1.53358","1999.37"
"18.60000","1.55000","2015.69"
"18.80000","1.56694","2035.24"
"19.00000","1.58367","2052.91"
"19.20000","1.59990","2070.57"
"19.40000","1.61683","2087.13"
"19.60000","1.63366","2105.48"
"19.80000","1.65019","2121.93"
"20.00000","1.66652","2137.67"
"20.20000","1.68335","2155.21"
"20.40000","1.70019","2171.47"
"20.60000","1.71641","2187.08"
"20.80000","1.73365","2206.17"
"21.00000","1.75028","2223.17"
"21.20000","1.76681","2240.85"
"21.40000","1.78334","2258.49"
"21.60000","1.80038","2277.55"
"21.80000","1.81701","2293.99"
"22.00000","1.83334","2312.27"
"22.20000","1.85007","2328.75"
"22.40000","1.86670","2346.81"
"22.60000","1.88343","2362.25"
"22.80000","1.90006","2381.43"
"23.00000","1.91720","2397.3"
"23.20000","1.93342","2414.62"
"23.40000","1.95016","2430.61"
"23.60000","1.96689","2448.52"
"23.80000","1.98372","2466.42"
"24.00000","1.99995","2481.46"
"24.20000","2.01678","2499.65"
"24.40000","2.03371","2518.8"
"24.60000","2.05014","2534.46"
"24.80000","2.06657","2550.7"
"25.00000","2.08381","2568.77"
"25.20000","2.10044","2585.8"
"25.40000","2.11636","2602.94"
"25.60000","2.13370","2620.63"
"25.80000","2.15023","2638.19"
"26.00000","2.16656","2654.74"
"26.20000","2.18339","2673.02"
"26.40000","2.20022","2689.92"
"26.60000","2.21706","2707.35"
"26.80000","2.23339","2723.8"
"27.00000","2.25052","2741.52"
"27.20000","2.26705","2757.19"
"27.40000","2.28328","2773.76"
"27.60000","2.30021","2792.49"
"27.80000","2.31735","2809.98"
"28.00000","2.33327","2825.58"
"28.20000","2.35021","2843.41"
"28.40000","2.36704","2860.34"
"28.60000","2.38337","2877.97"
"28.80000","2.39980","2895.06"
"29.00000","2.41683","2912.86"
"29.20000","2.43366","2929.94"
"29.40000","2.45009","2946.51"
"29.60000","2.46682","2962.6"
"29.80000","2.48366","2979.94"
"30.00000","2.50019","2996.73"
"30.20000","2.51662","3013.86"
"30.40000","2.53405","3031.93"
"30.60000","2.55028","3048.86"
"30.80000","2.56661","3064.43"
"31.00000","2.58344","3081.86"
"31.20000","2.59997","3098.77"
"31.40000","2.61670","3117.06"
"31.60000","2.63303","3133.7"
"31.80000","2.65027","3150.8"
"32.00000","2.66690","3168.37"
"32.20000","2.68333","3184.15"
"32.40000","2.70026","3201.34"
"32.60000","2.71709","3217.81"
"32.80000","2.73322","3234.09"
"33.00000","2.75015","3250.95"
"33.20000","2.76709","3268.17"
"33.40000","2.78362","3284.52"
"33.60000","2.79985","3301.36"
"33.80000","2.81708","3318.78"
"34.00000","2.83391","3335.6"
"34.20000","2.84994","3351.34"
"34.40000","2.86677","3369.59"
"34.60000","2.88361","3385.03"
"34.80000","2.90003","3401.52"
"35.00000","2.91656","3418.07"
"35.20000","2.93370","3435.62"
"35.40000","2.95033","3452.03"
"35.60000","2.96666","3467.54"
"35.80000","2.98359","3483.85"
"36.00000","3.00042","3501.25"
"36.20000","3.01706","3516.67"
"36.40000","3.03318","3531.99"
"36.60000","3.05052","3548.27"
"36.80000","3.06685","3564.52"
"37.00000","3.08298","3579.62"
"37.20000","3.10011","3596.46"
"37.40000","3.11704","3612.74"
"37.60000","3.13337","3629.15"
"37.80000","3.15031","3644.65"
"38.00000","3.16704","3661.23"
"38.20000","3.18326","3676.63"
"38.40000","3.20010","3692.02"
"38.60000","3.21703","3708.54"
"38.80000","3.23376","3724.36"
"39.00000","3.24989","3740.16"
"39.20000","3.26692","3756.59"
"39.40000","3.28386","3770"
"39.60000","3.29978","3784.24"
"39.80000","3.31672","3799.38"
"40.00000","3.33375","3815.05"
"40.20000","3.35018","3828.82"
"40.40000","3.36651","3843.55"
"40.60000","3.38364","3859.23"
"40.80000","3.40017","3873.15"
"41.00000","3.41680","3887.91"
"41.20000","3.43343","3901.75"
"41.40000","3.45047","3917.23"
"41.60000","3.46690","3930.9"
"41.80000","3.48333","3944.5"
"42.00000","3.50046","3959.3"
"42.20000","3.51679","3973.4"
"42.40000","3.53312","3985.78"
"42.60000","3.55015","3999.49"
"42.80000","3.56689","4013.39"
"43.00000","3.58321","4025.89"
"43.20000","3.60015","4039.16"
"43.40000","3.61708","4050.74"
"43.60000","3.63371","4064.02"
"43.80000","3.64994","4074.67"
"44.00000","3.66707","4086.1"
"44.20000","3.68381","4098.4"
"44.40000","3.69993","4108.2"
"44.60000","3.71697","4118.6"
"44.80000","3.73360","4129.95"
"45.00000","3.75033","4137.99"
"45.20000","3.76666","4146.12"
"45.40000","3.78339","4155.04"
"45.60000","3.80022","4162.01"
"45.80000","3.81685","4169.17"
"46.00000","3.83359","4175.29"
"46.20000","3.85042","4179.42"
"46.40000","3.86665","4183.86"
"46.60000","3.88328","4186.51"
"46.80000","3.90061","4188.01"
"47.00000","3.91684","4186.49"
"47.20000","3.93347","4183.78"
"47.40000","3.95020","4180.76"
"47.60000","3.96693","4174.96"
"47.80000","3.98316","4165.03"
"48.00000","4.00010","4155.8"
"48.20000","4.01693","4144.15"
"48.40000","4.03366","4128.78"
"48.60000","4.04989","4112.22"
"48.80000","4.06712","4094.59"
"49.00000","4.08376","4073.77"
"49.20000","4.09988","4051.94"
"49.40000","4.11702","4026.79"
"49.60000","4.13375","4001.07"
"49.80000","4.15008","3968.26"
"50.00000","4.16671","3929.31"
"50.20000","4.18364","3881.61"
"50.37200","4.19795","3497.48"
"50.38000","4.19876","2726.91"
"50.38400","4.19926","2287.44"