File: Data_Processing/Tensile-Data/Sequence_3.csv
General : Start date,"10/22/2024 9:13 AM"
General : End date,"10/22/2024 9:14 AM"
Specimen notes : Specimen note 1,"black, 200, batch 4, seq 3"
Test : Rate 1,"5.00000",mm/min

Time,Extension,Load
(s),(mm),(N)
"0.00000","-0.06431","-2.19952"
"0.20000","-0.05342","9.43504"
"0.40000","-0.03135","54.39290"
"0.60000","-0.01441","84.87593"
"0.80000","0.00212","114.989"
"1.00000","0.01945","143.818"
"1.20000","0.03588","170.948"
"1.40000","0.05251","198.763"
"1.60000","0.06925","227.13"
"1.80000","0.08638","256.936"
"2.00000","0.10271","285.577"
"2.20000","0.11924","313.029"
"2.40000","0.13607","341.357"
"2.60000","0.15290","370.173"
"2.80000","0.16893","397.825"
"3.00000","0.18586","426.617"
"3.20000","0.20270","455.197"
"3.40000","0.21882","482.743"
"3.60000","0.23596","510.685"
"3.80000","0.25279","538.826"
"4.00000","0.26942","566.132"
"4.20000","0.28595","594.162"
"4.40000","0.30278","621.124"
"4.60000","0.31962","649.576"
"4.80000","0.33554","675.889"
"5.00000","0.35278","703.049"
"5.20000","0.36951","730.223"
"5.40000","0.38604","756.499"
"5.60000","0.40237","783.789"
"5.80000","0.41960","811.59"
"6.00000","0.43593","838.844"
"6.20000","0.45226","865.23"
"6.40000","0.46960","891.951"
"6.60000","0.48572","918.433"
"6.80000","0.50246","944.976"
"7.00000","0.51889","971.827"
"7.20000","0.53622","999.871"
"7.40000","0.55245","1025.94"
"7.60000","0.56908","1052.75"
"7.80000","0.58601","1078.42"
"8.00000","0.60285","1104.53"
"8.20000","0.61907","1129.99"
"8.40000","0.63611","1156.19"
"8.60000","0.65294","1182.33"
"8.80000","0.66897","1206.79"
"9.00000","0.68580","1233.15"
"9.20000","0.70253","1257.97"
"9.40000","0.71946","1284.75"
"9.60000","0.73559","1309.96"
"9.80000","0.75263","1335.84"
"10.00000","0.76936","1360.7"
"10.20000","0.78569","1385.09"
"10.40000","0.80242","1409.75"
"10.60000","0.81955","1436.61"
"10.80000","0.83598","1461"
"11.00000","0.85241","1485.74"
"11.20000","0.86945","1511.17"
"11.40000","0.88598","1536.4"
"11.60000","0.90241","1559.77"
"11.80000","0.91914","1583.63"
"12.00000","0.93607","1609.84"
"12.20000","0.95260","1632.67"
"12.40000","0.96903","1655.84"
"12.60000","0.98637","1680.9"
"12.80000","1.00270","1703.95"
"13.00000","1.01902","1727.27"
"13.20000","1.03596","1751.87"
"13.40000","1.05269","1775.73"
"13.60000","1.06912","1799.48"
"13.80000","1.08565","1821.46"
"14.00000","1.10258","1845.18"
"14.20000","1.11951","1868.95"
"14.40000","1.13544","1890.96"
"14.60000","1.15278","1916.08"
"14.80000","1.16951","1938.11"
"15.00000","1.18584","1960.37"
"15.20000","1.20267","1981.85"
"15.40000","1.21940","2006.11"
"15.60000","1.23593","2027.06"
"15.80000","1.25236","2049.9"
"16.00000","1.26939","2072.61"
"16.20000","1.28593","2095.24"
"16.40000","1.30205","2116.23"
"16.60000","1.31919","2138.26"
"16.80000","1.33622","2160.81"
"17.00000","1.35245","2181.9"
"17.20000","1.36908","2203.3"
"17.40000","1.38621","2225.86"
"17.60000","1.40244","2245.89"
"17.80000","1.41917","2266.85"
"18.00000","1.43621","2289.06"
"18.20000","1.45284","2310.86"
"18.40000","1.46907","2331.83"
"18.60000","1.48600","2353.02"
"18.80000","1.50273","2372.84"
"19.00000","1.51926","2393.68"
"19.20000","1.53569","2413.65"
"19.40000","1.55273","2434.29"
"19.60000","1.56916","2454.56"
"19.80000","1.58548","2475.69"
"20.00000","1.60272","2497.66"
"20.20000","1.61905","2516.68"
"20.40000","1.63608","2538.02"
"20.60000","1.65261","2557.22"
"20.80000","1.66955","2578.07"
"21.00000","1.68587","2597.57"
"21.20000","1.70240","2616.29"
"21.40000","1.71934","2636.72"
"21.60000","1.73607","2656.46"
"21.80000","1.75240","2674.66"
"22.00000","1.76913","2692.98"
"22.20000","1.78606","2712.18"
"22.40000","1.80239","2730.39"
"22.60000","1.81912","2749.61"
"22.80000","1.83596","2766.87"
"23.00000","1.85279","2709"
"23.20000","1.86902","2731.26"
"23.40000","1.88585","2753.18"
"23.60000","1.90298","2776.06"
"23.80000","1.91911","2796.34"
"24.00000","1.93564","2816.73"
"24.20000","1.95257","2836.57"
"24.40000","1.96941","2857.82"
"24.60000","1.98563","2876.94"
"24.80000","2.00287","2898.22"
"25.00000","2.01900","2917"
"25.20000","2.03573","2936.01"
"25.40000","2.05236","2955.19"
"25.60000","2.06939","2974.21"
"25.80000","2.08592","2993.39"
"26.00000","2.10235","3011.84"
"26.20000","2.11959","3030.9"
"26.40000","2.13622","3048.69"
"26.60000","2.15225","3065.9"
"26.80000","2.16948","3085.75"
"27.00000","2.18621","3103.75"
"27.20000","2.20244","3120.51"
"27.40000","2.21907","3137.76"
"27.60000","2.23611","3157.2"
"27.80000","2.25244","3174.77"
"28.00000","2.26876","3190.09"
"28.20000","2.28600","3208.65"
"28.40000","2.30293","3226.4"
"28.60000","2.31886","3241.52"
"28.80000","2.33589","3258.4"
"29.00000","2.35273","3275.32"
"29.20000","2.36915","3291.65"
"29.40000","2.38548","3307.29"
"29.60000","2.40302","3325.23"
"29.80000","2.41935","3341.51"
"30.00000","2.43588","3358.47"
"30.20000","2.45271","3300.11"
"30.40000","2.46944","3323.67"
"30.60000","2.48567","3343.54"
"30.80000","2.50240","3362.39"
"31.00000","2.51954","3382.76"
"31.20000","2.53617","3355.08"
"31.40000","2.55230","3346.98"
"31.60000","2.56983","3369.06"
"31.80000","2.58616","3388.67"
"32.00000","2.60229","3406.8"
"32.20000","2.61922","3427.4"
"32.40000","2.63606","3447.54"
"32.60000","2.65249","3464.97"
"32.80000","2.66932","3484.86"
"33.00000","2.68575","3501.81"
"33.20000","2.70288","3520.63"
"33.40000","2.71871","3537.44"
"33.60000","2.73604","3556.2"
"33.80000","2.75267","3572.74"
"34.00000","2.76900","3589.49"
"34.20000","2.78573","3605.57"
"34.40000","2.80287","3623.45"
"34.60000","2.81920","3639.08"
"34.80000","2.83573","3655.59"
"35.00000","2.85286","3671.91"
"35.20000","2.86939","3686.32"
"35.40000","2.88582","3701.41"
"35.60000","2.90235","3716.26"
"35.80000","2.91959","3732.18"
"36.00000","2.93561","3744.82"
"36.20000","2.95214","3758.38"
"36.40000","2.96948","3773.35"
"36.60000","2.98601","3787.02"
"36.80000","3.00254","3799.38"
"37.00000","3.01937","3813.6"
"37.20000","3.03631","3827.33"
"37.40000","3.05243","3840.06"
"37.60000","3.06917","3847.59"
"37.80000","3.08600","3854.98"
"38.00000","3.10283","3866.9"
"38.20000","3.11886","3877.9"
"38.40000","3.13609","3891.82"
"38.60000","3.15262","3823.54"
"38.80000","3.16885","3843.69"
"39.00000","3.18599","3859.75"
"39.20000","3.20272","3875.46"
"39.40000","3.21955","3888.14"
"39.60000","3.23588","3901.27"
"39.80000","3.25291","3915.94"
"40.00000","3.26954","3928.55"
"40.20000","3.28577","3939.54"
"40.40000","3.30260","3952.34"
"40.60000","3.31974","3965.25"
"40.80000","3.33587","3975.61"
"41.00000","3.35240","3985.25"
"41.20000","3.36943","3994.41"
"41.40000","3.38586","4003.47"
"41.60000","3.40239","4011.34"
"41.80000","3.41922","4019"
"42.00000","3.43626","4024.93"
"42.20000","3.45248","4029.83"
"42.40000","3.46932","4033.04"
"42.60000","3.48625","4034"
"42.80000","3.50288","4032.57"
"43.00000","3.51901","4025.19"
"43.20000","3.53624","4003.6"
"43.40000","3.55288","3976.97"
"43.59400","3.56850","3618.07"
"43.60200","3.56920","2867.04"
"43.60800","3.56991","2203.32"