File: Data_Processing/Tensile-Data/Sequence_24.csv
General : Start date,"10/29/2024 10:04 AM"
General : End date,"10/29/2024 10:05 AM"
Specimen notes : Specimen note 1,"Day 2, purple, 215, batch 10, seq 24"
Test : Rate 1,"5.00000",mm/min

Time,Extension,Load
(s),(mm),(N)
"0.00000","0.00010","0.65782"
"0.20000","0.01522","20.75209"
"0.40000","0.03548","59.67447"
"0.60000","0.05251","88.66644"
"0.80000","0.06995","118.031"
"1.00000","0.08688","146.27"
"1.20000","0.10331","171.584"
"1.40000","0.12015","197.464"
"1.60000","0.13668","224.461"
"1.80000","0.15331","249.17"
"2.00000","0.16974","273.954"
"2.20000","0.18677","300.552"
"2.40000","0.20340","324.66"
"2.60000","0.21953","348.541"
"2.80000","0.23646","372.744"
"3.00000","0.25370","396.914"
"3.20000","0.26972","418.979"
"3.40000","0.28656","441.875"
"3.60000","0.30359","463.825"
"3.80000","0.32012","485.425"
"4.00000","0.33625","506.215"
"4.20000","0.35348","529.705"
"4.40000","0.37022","550.926"
"4.60000","0.38644","570.659"
"4.80000","0.40328","591.401"
"5.00000","0.42011","609.193"
"5.20000","0.43664","625.232"
"5.40000","0.45297","643.542"
"5.60000","0.47030","661.765"
"5.80000","0.48693","678.096"
"6.00000","0.50306","694.938"
"6.20000","0.51999","712.64"
"6.40000","0.53683","729.573"
"6.60000","0.55316","746.008"
"6.80000","0.56969","762.719"
"7.00000","0.58672","780.578"
"7.20000","0.60335","797.458"
"7.40000","0.61978","815.712"
"7.60000","0.63681","833.505"
"7.80000","0.65345","849.579"
"8.00000","0.66957","865.561"
"8.20000","0.68651","881.251"
"8.40000","0.70344","900.231"
"8.60000","0.71987","916.724"
"8.80000","0.73660","934.869"
"9.00000","0.75313","949.76"
"9.20000","0.77016","968.287"
"9.40000","0.78629","984.058"
"9.60000","0.80353","1001.7"
"9.80000","0.81986","1018.92"
"10.00000","0.83669","1035.3"
"10.20000","0.85302","1052.16"
"10.40000","0.87025","1070.36"
"10.60000","0.88668","1087.19"
"10.80000","0.90331","1102.81"
"11.00000","0.92004","1119.32"
"11.20000","0.93668","1136.21"
"11.40000","0.95290","1152.81"
"11.60000","0.96974","1169.78"
"11.80000","0.98677","1188.3"
"12.00000","1.00340","1205.35"
"12.20000","1.01963","1221.59"
"12.40000","1.03686","1240.15"
"12.60000","1.05339","1258.21"
"12.80000","1.06972","1274.88"
"13.00000","1.08666","1292.13"
"13.20000","1.10369","1309.03"
"13.40000","1.12002","1326.91"
"13.60000","1.13645","1344.08"
"13.80000","1.15278","1362"
"14.00000","1.16981","1379.47"
"14.20000","1.18604","1396.13"
"14.40000","1.20327","1415.49"
"14.60000","1.22011","1432.02"
"14.80000","1.23644","1448.5"
"15.00000","1.25327","1465.12"
"15.20000","1.27010","1482.81"
"15.40000","1.28663","1499.45"
"15.60000","1.30326","1516.34"
"15.80000","1.32020","1533.76"
"16.00000","1.33683","1550.96"
"16.20000","1.35315","1567.57"
"16.40000","1.36958","1584.59"
"16.60000","1.38692","1601.83"
"16.80000","1.40325","1618.37"
"17.00000","1.41988","1634.61"
"17.20000","1.43691","1652.19"
"17.40000","1.45314","1669.49"
"17.60000","1.46967","1687.27"
"17.80000","1.48681","1703.51"
"18.00000","1.50344","1718.95"
"18.20000","1.51977","1734.76"
"18.40000","1.53660","1751.77"
"18.60000","1.55343","1768.17"
"18.80000","1.57006","1784.57"
"19.00000","1.58629","1801.81"
"19.20000","1.60363","1819.81"
"19.40000","1.62016","1835.23"
"19.60000","1.63618","1851.04"
"19.80000","1.65342","1867.73"
"20.00000","1.66995","1883.36"
"20.20000","1.68638","1899.25"
"20.40000","1.70311","1915.27"
"20.60000","1.72004","1931.06"
"20.80000","1.73657","1946.8"
"21.00000","1.75310","1960.85"
"21.20000","1.77024","1977.74"
"21.40000","1.78707","1992.41"
"21.60000","1.80320","2008.32"
"21.80000","1.81993","2023.79"
"22.00000","1.83696","2038.59"
"22.20000","1.85309","2054.68"
"22.40000","1.86972","2068.78"
"22.60000","1.88676","2085.39"
"22.80000","1.90339","2100.66"
"23.00000","1.91972","2116.03"
"23.20000","1.93665","2131.55"
"23.40000","1.95348","2146.69"
"23.60000","1.97001","2161.49"
"23.80000","1.98624","2177.35"
"24.00000","2.00337","2194"
"24.20000","2.02011","2208.97"
"24.40000","2.03633","2223.74"
"24.60000","2.05347","2239.78"
"24.80000","2.06990","2255.4"
"25.00000","2.08663","2270.89"
"25.20000","2.10316","2284.76"
"25.40000","2.12009","2300.92"
"25.60000","2.13642","2315.7"
"25.80000","2.15315","2331.81"
"26.00000","2.16999","2347.65"
"26.20000","2.18702","2363.09"
"26.40000","2.20284","2378.28"
"26.60000","2.21998","2394.66"
"26.80000","2.23701","2409.46"
"27.00000","2.25294","2423.74"
"27.20000","2.26977","2440.3"
"27.40000","2.28681","2456"
"27.60000","2.30344","2471.93"
"27.80000","2.31966","2487.32"
"28.00000","2.33640","2504.16"
"28.20000","2.35363","2519.89"
"28.40000","2.36986","2533.61"
"28.60000","2.38639","2548.86"
"28.80000","2.40352","2563.7"
"29.00000","2.42006","2579.01"
"29.20000","2.43608","2594.3"
"29.40000","2.45372","2610.56"
"29.60000","2.46985","2625.97"
"29.80000","2.48638","2640.62"
"30.00000","2.50331","2656.58"
"30.20000","2.52004","2671.91"
"30.40000","2.53627","2686.69"
"30.60000","2.55300","2701.32"
"30.80000","2.57024","2717.42"
"31.00000","2.58667","2731.86"
"31.20000","2.60269","2746.91"
"31.40000","2.62003","2763.47"
"31.60000","2.63686","2778.82"
"31.80000","2.65299","2793.07"
"32.00000","2.67002","2808.87"
"32.20000","2.68706","2823.77"
"32.40000","2.70359","2838.13"
"32.60000","2.71982","2853.25"
"32.80000","2.73665","2868.83"
"33.00000","2.75348","2884.19"
"33.20000","2.76971","2899.45"
"33.40000","2.78654","2914.08"
"33.60000","2.80327","2929.36"
"33.80000","2.81970","2944.06"
"34.00000","2.83633","2957.88"
"34.20000","2.85367","2973.75"
"34.40000","2.87000","2988.77"
"34.60000","2.88663","3003.72"
"34.80000","2.90356","3019.66"
"35.00000","2.92009","3034.59"
"35.20000","2.93652","3048.36"
"35.40000","2.95315","3063.65"
"35.60000","2.97029","3078.45"
"35.80000","2.98672","3092.73"
"36.00000","3.00284","3106.5"
"36.20000","3.01988","3121.86"
"36.40000","3.03661","3136.12"
"36.60000","3.05294","3150.76"
"36.80000","3.07007","3165.39"
"37.00000","3.08680","3180.12"
"37.20000","3.10334","3193.61"
"37.40000","3.11987","3208.07"
"37.60000","3.13670","3224.86"
"37.80000","3.15383","3237.9"
"38.00000","3.16976","3251.82"
"38.20000","3.18679","3267.18"
"38.40000","3.20352","3281.7"
"38.60000","3.21975","3295.21"
"38.80000","3.23638","3309.28"
"39.00000","3.25352","3323.65"
"39.20000","3.26975","3338.64"
"39.40000","3.28628","3352.13"
"39.60000","3.30311","3366.22"
"39.80000","3.32014","3380.28"
"40.00000","3.33637","3394.49"
"40.20000","3.35320","3408.32"
"40.40000","3.37024","3422.44"
"40.60000","3.38657","3435.96"
"40.80000","3.40310","3449.88"
"41.00000","3.42043","3463.74"
"41.20000","3.43656","3477.58"
"41.40000","3.45289","3490.62"
"41.60000","3.47002","3505.1"
"41.80000","3.48675","3518.53"
"42.00000","3.50308","3532.07"
"42.20000","3.51992","3544.97"
"42.40000","3.53655","3557.57"
"42.60000","3.55348","3570.15"
"42.80000","3.56951","3582.6"
"43.00000","3.58694","3595.89"
"43.20000","3.60337","3608.25"
"43.40000","3.61990","3620.78"
"43.60000","3.63694","3633.61"
"43.80000","3.65347","3645.99"
"44.00000","3.66990","3657.97"
"44.20000","3.68653","3670.28"
"44.40000","3.70346","3682.29"
"44.60000","3.71989","3694.63"
"44.80000","3.73652","3705.57"
"45.00000","3.75325","3717.37"
"45.20000","3.77009","3727.42"
"45.40000","3.78641","3737.47"
"45.60000","3.80335","3748.26"
"45.80000","3.82038","3758.18"
"46.00000","3.83641","3767.48"
"46.20000","3.85324","3775.53"
"46.40000","3.87027","3782.92"
"46.60000","3.88680","3788.61"
"46.80000","3.90323","3794.04"
"47.00000","3.91976","3797.31"
"47.20000","3.93650","3798.52"
"47.40000","3.95323","3794.28"
"47.60000","3.96966","3780"
"47.80000","3.98679","3719.16"
"47.85000","3.99102","3093.19"
"47.85800","3.99193","2284.1"
"47.86000","3.99213","2074.96"