File: Data_Processing/Tensile-Data/Sequence_2.csv
General : Start date,"10/22/2024 9:09 AM"
General : End date,"10/22/2024 9:10 AM"
Specimen notes : Specimen note 1,"black, 200, batch 2, seq 2"
Test : Rate 1,"5.00000",mm/min

Time,Extension,Load
(s),(mm),(N)
"0.00000","0.00000","0.64735"
"0.20000","0.01129","13.82545"
"0.40000","0.03286","57.51871"
"0.60000","0.04989","86.94006"
"0.80000","0.06673","115.194"
"1.00000","0.08386","142.649"
"1.20000","0.10029","169.797"
"1.40000","0.11682","196.749"
"1.60000","0.13375","225.532"
"1.80000","0.15069","254.843"
"2.00000","0.16681","281.477"
"2.20000","0.18344","309.452"
"2.40000","0.20038","337.112"
"2.60000","0.21640","364.038"
"2.80000","0.23354","392.357"
"3.00000","0.25057","420.39"
"3.20000","0.26690","446.537"
"3.40000","0.28363","474.925"
"3.60000","0.30037","501.841"
"3.80000","0.31720","529.117"
"4.00000","0.33332","555.436"
"4.20000","0.35026","582.768"
"4.40000","0.36709","609.936"
"4.60000","0.38362","636.293"
"4.80000","0.40005","662.885"
"5.00000","0.41729","690.3"
"5.20000","0.43361","716.139"
"5.40000","0.44994","741.745"
"5.60000","0.46698","768.332"
"5.80000","0.48341","793.976"
"6.00000","0.50004","818.553"
"6.20000","0.51657","844.394"
"6.40000","0.53380","870.729"
"6.60000","0.55023","895.872"
"6.80000","0.56666","920.819"
"7.00000","0.58360","945.801"
"7.20000","0.60053","969.888"
"7.40000","0.61655","992.937"
"7.60000","0.63349","1018.07"
"7.80000","0.65042","1042.12"
"8.00000","0.66695","1065.86"
"8.20000","0.68328","1089.04"
"8.40000","0.70001","1112.54"
"8.60000","0.71705","1136.57"
"8.80000","0.73327","1158.39"
"9.00000","0.75021","1182.05"
"9.20000","0.76704","1206.01"
"9.40000","0.78347","1227.78"
"9.60000","0.79970","1250.36"
"9.80000","0.81713","1273.86"
"10.00000","0.83366","1293.73"
"10.20000","0.84999","1316.3"
"10.40000","0.86693","1337.96"
"10.60000","0.88366","1359.88"
"10.80000","0.90009","1380.9"
"11.00000","0.91662","1401.74"
"11.20000","0.93365","1423.88"
"11.40000","0.95028","1444.34"
"11.60000","0.96661","1465.28"
"11.80000","0.98375","1486.88"
"12.00000","1.00028","1507.97"
"12.20000","1.01650","1527.78"
"12.40000","1.03354","1547.86"
"12.60000","1.05037","1569.57"
"12.80000","1.06670","1589.2"
"13.00000","1.08343","1609.72"
"13.20000","1.10006","1629.75"
"13.40000","1.11710","1650.42"
"13.60000","1.13322","1670.29"
"13.80000","1.15046","1691.62"
"14.00000","1.16699","1710.9"
"14.20000","1.18352","1730.73"
"14.40000","1.20015","1749.63"
"14.60000","1.21708","1770.64"
"14.80000","1.23361","1789.79"
"15.00000","1.25004","1807.77"
"15.20000","1.26708","1827.08"
"15.40000","1.28361","1845.84"
"15.60000","1.29983","1862.82"
"15.80000","1.31677","1881.41"
"16.00000","1.33370","1900.25"
"16.20000","1.35003","1916.9"
"16.40000","1.36656","1933.08"
"16.60000","1.38380","1950.66"
"16.80000","1.40012","1968.76"
"17.00000","1.41676","1985.01"
"17.20000","1.43349","2002.5"
"17.40000","1.45052","2021.05"
"17.60000","1.46675","2037.24"
"17.80000","1.48358","2055.6"
"18.00000","1.50031","2073.49"
"18.20000","1.51694","2090.84"
"18.40000","1.53317","2107.58"
"18.60000","1.55041","2127.1"
"18.80000","1.56674","2143.73"
"19.00000","1.58337","2161.55"
"19.20000","1.60030","2179.37"
"19.40000","1.61663","2196.18"
"19.60000","1.63366","2214.88"
"19.80000","1.65019","2231.8"
"20.00000","1.66713","2250.54"
"20.20000","1.68356","2267.24"
"20.40000","1.69999","2284.2"
"20.60000","1.71682","2302.34"
"20.80000","1.73385","2320.78"
"21.00000","1.75008","2337.6"
"21.20000","1.76671","2353.61"
"21.40000","1.78364","2371.07"
"21.60000","1.79997","2387.92"
"21.80000","1.81650","2405.38"
"22.00000","1.83354","2423.21"
"22.20000","1.85057","2441.04"
"22.40000","1.86650","2456.33"
"22.60000","1.88333","2475.4"
"22.80000","1.90056","2493.53"
"23.00000","1.91679","2510.33"
"23.20000","1.93312","2525.9"
"23.40000","1.95036","2544.77"
"23.60000","1.96699","2561.73"
"23.80000","1.98301","2577.45"
"24.00000","2.00045","2595.18"
"24.20000","2.01678","2611.71"
"24.40000","2.03331","2628.17"
"24.60000","2.04994","2645.09"
"24.80000","2.06697","2662.27"
"25.00000","2.08361","2680.36"
"25.20000","2.10004","2695.53"
"25.40000","2.11727","2714.32"
"25.60000","2.13390","2730.06"
"25.80000","2.14993","2746.13"
"26.00000","2.16696","2762.45"
"26.20000","2.18390","2780.02"
"26.40000","2.19992","2794.57"
"26.60000","2.21675","2812.4"
"26.80000","2.23369","2829.45"
"27.00000","2.25022","2846.41"
"27.20000","2.26655","2861.41"
"27.40000","2.28338","2878"
"27.60000","2.30041","2894.34"
"27.80000","2.31654","2910.18"
"28.00000","2.33337","2926.55"
"28.20000","2.35021","2943.56"
"28.40000","2.36684","2960.05"
"28.60000","2.38327","2975.79"
"28.80000","2.40080","2992.3"
"29.00000","2.41683","3006.95"
"29.20000","2.43366","3023.53"
"29.40000","2.45019","3039.08"
"29.60000","2.46703","3055.42"
"29.80000","2.48325","3070.08"
"30.00000","2.49978","3085.99"
"30.20000","2.51712","3103.22"
"30.40000","2.53375","3119.82"
"30.60000","2.55008","3134.22"
"30.80000","2.56711","3151.57"
"31.00000","2.58374","3167.61"
"31.20000","2.59987","3182.15"
"31.40000","2.61670","3197.34"
"31.60000","2.63364","3212.62"
"31.80000","2.65037","3229.39"
"32.00000","2.66670","3243.49"
"32.20000","2.68333","3258.27"
"32.40000","2.70056","3274.07"
"32.60000","2.71659","3288.18"
"32.80000","2.73352","3303.21"
"33.00000","2.75036","3219.26"
"33.20000","2.76689","3242.02"
"33.40000","2.78321","3260.91"
"33.60000","2.80055","3279.42"
"33.80000","2.81688","3298.16"
"34.00000","2.83341","3316.06"
"34.20000","2.85024","3332.88"
"34.40000","2.86697","3349.68"
"34.60000","2.88330","3364.59"
"34.80000","2.89963","3381.66"
"35.00000","2.91717","3399.14"
"35.20000","2.93350","3415.39"
"35.40000","2.94973","3431.16"
"35.60000","2.96696","3448.46"
"35.80000","2.98379","3458.3"
"36.00000","3.00002","3473.05"
"36.20000","3.01685","3489.45"
"36.40000","3.03399","3504.78"
"36.60000","3.05022","3518.22"
"36.80000","3.06665","3532.55"
"37.00000","3.08338","3547.16"
"37.20000","3.10051","3562.09"
"37.40000","3.11644","3574.86"
"37.60000","3.13377","3591.14"
"37.80000","3.15031","3603.68"
"38.00000","3.16663","3616.83"
"38.20000","3.18337","3631.09"
"38.40000","3.20040","3644.35"
"38.60000","3.21703","3658.18"
"38.80000","3.23346","3671.04"
"39.00000","3.25039","3680.15"
"39.20000","3.26712","3693.33"
"39.40000","3.28325","3705.48"
"39.60000","3.30008","3714.09"
"39.80000","3.31722","3727.06"
"40.00000","3.33365","3731.7"
"40.20000","3.35018","3742.02"
"40.40000","3.36701","3753.85"
"40.60000","3.38344","3765"
"40.80000","3.39997","3775.3"
"41.00000","3.41680","3787.32"
"41.20000","3.43374","3797.1"
"41.40000","3.44996","3808.26"
"41.60000","3.46690","3819.13"
"41.80000","3.48383","3829.31"
"42.00000","3.50066","3840.43"
"42.20000","3.51649","3849.76"
"42.40000","3.53383","3861.07"
"42.60000","3.55035","3871.11"
"42.80000","3.56658","3879.54"
"43.00000","3.58362","3888.41"
"43.20000","3.60015","3897.41"
"43.40000","3.61688","3905.67"
"43.60000","3.63331","3912.88"
"43.80000","3.65014","3921.74"
"44.00000","3.66697","3929.5"
"44.20000","3.68330","3935.38"
"44.40000","3.70024","3941.17"
"44.60000","3.71717","3946.09"
"44.80000","3.73330","3948.86"
"45.00000","3.75013","3952.18"
"45.20000","3.76726","3950.97"
"45.40000","3.78339","3947.3"
"45.60000","3.80012","3940.38"
"45.80000","3.81685","3926.8"
"46.00000","3.83369","3898.15"
"46.15800","3.84659","3609.99"
"46.16600","3.84729","2900.83"
"46.17200","3.84800","2253.35"