File: Data_Processing/Tensile-Data/Sequence_50.csv
General : Start date,"11/5/2024 8:33 AM"
General : End date,"11/5/2024 8:34 AM"
Specimen notes : Specimen note 1,"Day 3, blue, 230, batch 14, seq 50"
Test : Rate 1,"5.00000",mm/min

Time,Extension,Load
(s),(mm),(N)
"0.00000","0.00000","0.32524"
"0.20000","0.01139","14.19440"
"0.40000","0.03266","56.22188"
"0.60000","0.04989","85.91277"
"0.80000","0.06683","115.48"
"1.00000","0.08346","142.461"
"1.20000","0.10039","170.682"
"1.40000","0.11712","197.319"
"1.60000","0.13355","223.519"
"1.80000","0.15038","249.946"
"2.00000","0.16712","277.528"
"2.20000","0.18344","303.342"
"2.40000","0.20018","330.451"
"2.60000","0.21721","357.544"
"2.80000","0.23334","384.609"
"3.00000","0.25007","411.519"
"3.20000","0.26680","437.11"
"3.40000","0.28353","463.543"
"3.60000","0.30016","488.929"
"3.80000","0.31700","513.141"
"4.00000","0.33393","538.918"
"4.20000","0.35026","564.231"
"4.40000","0.36699","588.457"
"4.60000","0.38372","613.686"
"4.80000","0.40055","636.809"
"5.00000","0.41648","659.733"
"5.20000","0.43361","683.297"
"5.40000","0.45045","706.023"
"5.60000","0.46667","728.964"
"5.80000","0.48361","751.214"
"6.00000","0.49994","772.038"
"6.20000","0.51697","794.276"
"6.40000","0.53340","815.748"
"6.60000","0.55053","836.757"
"6.80000","0.56717","860.239"
"7.00000","0.58339","879.89"
"7.20000","0.60023","901.094"
"7.40000","0.61726","922.271"
"7.60000","0.63319","940.037"
"7.80000","0.64992","961.151"
"8.00000","0.66705","980.193"
"8.20000","0.68338","999.554"
"8.40000","0.69971","1018.72"
"8.60000","0.71684","1037.12"
"8.80000","0.73378","1055.74"
"9.00000","0.75011","1073.19"
"9.20000","0.76664","1092.22"
"9.40000","0.78377","1108.75"
"9.60000","0.80030","1125.13"
"9.80000","0.81653","1142.91"
"10.00000","0.83366","1160.67"
"10.20000","0.85050","1177.22"
"10.40000","0.86652","1195.23"
"10.60000","0.88376","1212.43"
"10.80000","0.90019","1231.04"
"11.00000","0.91682","1247.16"
"11.20000","0.93335","1263.78"
"11.40000","0.95038","1281.29"
"11.60000","0.96671","1296.92"
"11.80000","0.98314","1312.88"
"12.00000","1.00018","1326.95"
"12.20000","1.01711","1343.48"
"12.40000","1.03344","1360.38"
"12.60000","1.05037","1376.36"
"12.80000","1.06720","1391.45"
"13.00000","1.08353","1407.99"
"13.20000","1.10016","1424.03"
"13.40000","1.11699","1442.4"
"13.60000","1.13373","1457.57"
"13.80000","1.14995","1473.34"
"14.00000","1.16699","1490.4"
"14.20000","1.18362","1505.77"
"14.40000","1.19995","1522.91"
"14.60000","1.21678","1538.29"
"14.80000","1.23381","1554.41"
"15.00000","1.25034","1570.78"
"15.20000","1.26657","1585.34"
"15.40000","1.28381","1602.76"
"15.60000","1.30024","1618.41"
"15.80000","1.31697","1634.9"
"16.00000","1.33340","1651.09"
"16.20000","1.35023","1667.54"
"16.40000","1.36686","1683.78"
"16.60000","1.38329","1700.8"
"16.80000","1.40033","1715.41"
"17.00000","1.41706","1732.52"
"17.20000","1.43329","1747.17"
"17.40000","1.45032","1764.09"
"17.60000","1.46695","1780.34"
"17.80000","1.48338","1795.24"
"18.00000","1.50031","1810.81"
"18.20000","1.51694","1827.23"
"18.40000","1.53368","1843.06"
"18.60000","1.54980","1858.14"
"18.80000","1.56664","1874.35"
"19.00000","1.58367","1890.83"
"19.20000","1.59970","1905.9"
"19.40000","1.61683","1921.9"
"19.60000","1.63376","1938.03"
"19.80000","1.65029","1952.8"
"20.00000","1.66652","1967.92"
"20.20000","1.68366","1985.2"
"20.40000","1.70029","2001.27"
"20.60000","1.71682","2016.79"
"20.80000","1.73355","2033.47"
"21.00000","1.75038","2049.97"
"21.20000","1.76661","2066.63"
"21.40000","1.78334","2082.03"
"21.60000","1.80068","2098.6"
"21.80000","1.81691","2113.84"
"22.00000","1.83344","2128.32"
"22.20000","1.85017","2144.76"
"22.40000","1.86700","2159.88"
"22.60000","1.88323","2175.3"
"22.80000","1.90016","2191.68"
"23.00000","1.91699","2206.74"
"23.20000","1.93363","2222.5"
"23.40000","1.94985","2237.92"
"23.60000","1.96709","2253.99"
"23.80000","1.98382","2269.15"
"24.00000","1.99985","2284.81"
"24.20000","2.01708","2301.49"
"24.40000","2.03361","2317.29"
"24.60000","2.04994","2333.19"
"24.80000","2.06677","2347.91"
"25.00000","2.08361","2364.14"
"25.20000","2.10024","2381.23"
"25.40000","2.11677","2395.82"
"25.60000","2.13380","2412.69"
"25.80000","2.15053","2428.3"
"26.00000","2.16676","2445.22"
"26.20000","2.18339","2460.67"
"26.40000","2.20073","2475.96"
"26.60000","2.21665","2492.58"
"26.80000","2.23349","2508.91"
"27.00000","2.25042","2525.01"
"27.20000","2.26685","2540.28"
"27.40000","2.28308","2554.45"
"27.60000","2.30021","2571.39"
"27.80000","2.31684","2586.3"
"28.00000","2.33357","2601.78"
"28.20000","2.35000","2617.84"
"28.40000","2.36704","2634.14"
"28.60000","2.38367","2649.95"
"28.80000","2.39990","2664.76"
"29.00000","2.41743","2681.96"
"29.20000","2.43376","2698"
"29.40000","2.45009","2712.61"
"29.60000","2.46672","2728.51"
"29.80000","2.48345","2744.11"
"30.00000","2.50009","2758.55"
"30.20000","2.51651","2773.47"
"30.40000","2.53365","2790.65"
"30.60000","2.55028","2805.61"
"30.80000","2.56661","2821.09"
"31.00000","2.58354","2837.63"
"31.20000","2.60058","2853.97"
"31.40000","2.61670","2869.58"
"31.60000","2.63344","2883.91"
"31.80000","2.65027","2898.83"
"32.00000","2.66700","2915.92"
"32.20000","2.68323","2929.17"
"32.40000","2.70046","2945.79"
"32.60000","2.71730","2961.27"
"32.80000","2.73322","2974.58"
"33.00000","2.75026","2990.93"
"33.20000","2.76699","3005.34"
"33.40000","2.78362","3021.46"
"33.60000","2.79985","3035.2"
"33.80000","2.81708","3051.35"
"34.00000","2.83361","3066.95"
"34.20000","2.84994","3083.14"
"34.40000","2.86697","3098.2"
"34.60000","2.88381","3113.66"
"34.80000","2.90034","3127.93"
"35.00000","2.91656","3142.67"
"35.20000","2.93390","3158.54"
"35.40000","2.95033","3171.74"
"35.60000","2.96636","3186.89"
"35.80000","2.98359","3202.84"
"36.00000","3.00053","3217.44"
"36.20000","3.01675","3231.48"
"36.40000","3.03349","3247.07"
"36.60000","3.05042","3261.21"
"36.80000","3.06675","3278.1"
"37.00000","3.08338","3291.6"
"37.20000","3.10051","3307.55"
"37.40000","3.11714","3322.32"
"37.60000","3.13317","3336.49"
"37.80000","3.15020","3351.63"
"38.00000","3.16724","3365.91"
"38.20000","3.18326","3379.62"
"38.40000","3.20010","3393.5"
"38.60000","3.21713","3408.61"
"38.80000","3.23366","3423.22"
"39.00000","3.24999","3437.22"
"39.20000","3.26712","3453.1"
"39.40000","3.28355","3466.53"
"39.60000","3.30029","3481.91"
"39.80000","3.31682","3495.76"
"40.00000","3.33385","3510.35"
"40.20000","3.35028","3524.58"
"40.40000","3.36671","3537.2"
"40.60000","3.38374","3551.93"
"40.80000","3.40017","3566.37"
"41.00000","3.41640","3579.18"
"41.20000","3.43354","3593.94"
"41.40000","3.45037","3607.6"
"41.60000","3.46670","3621.13"
"41.80000","3.48353","3635.08"
"42.00000","3.50046","3649.42"
"42.20000","3.51719","3661.89"
"42.40000","3.53332","3674.02"
"42.60000","3.55035","3688.67"
"42.80000","3.56709","3701.57"
"43.00000","3.58331","3714.13"
"43.20000","3.60025","3727.66"
"43.40000","3.61708","3740.86"
"43.60000","3.63371","3752.74"
"43.80000","3.65004","3764.06"
"44.00000","3.66687","3777.1"
"44.20000","3.68360","3789.4"
"44.40000","3.70013","3800.32"
"44.60000","3.71687","3812.58"
"44.80000","3.73380","3823.95"
"45.00000","3.75023","3835.97"
"45.20000","3.76656","3846.98"
"45.40000","3.78389","3859.18"
"45.60000","3.80022","3868.22"
"45.80000","3.81675","3878.85"
"46.00000","3.83359","3889.54"
"46.20000","3.85032","3898.96"
"46.40000","3.86644","3908.44"
"46.60000","3.88338","3917.61"
"46.80000","3.90031","3926.54"
"47.00000","3.91704","3933.29"
"47.20000","3.93327","3939.82"
"47.40000","3.95040","3947.61"
"47.60000","3.96714","3950.88"
"47.80000","3.98316","3953.25"
"48.00000","4.00040","3956.16"
"48.20000","4.01713","3958.53"
"48.40000","4.03346","3955.73"
"48.60000","4.04999","3952.89"
"48.80000","4.06702","3949.19"
"49.00000","4.08365","3940.91"
"49.20000","4.10008","3929.99"
"49.40000","4.11692","3912.44"
"49.60000","4.13365","3886.29"
"49.80000","4.15018","3840.05"
"49.97000","4.16439","3487.96"
"49.97800","4.16510","2771.89"
"49.98400","4.16580","2132.67"