File: Data_Processing/Tensile-Data/Sequence_36.csv
General : Start date,"10/29/2024 10:35 AM"
General : End date,"10/29/2024 10:36 AM"
Specimen notes : Specimen note 1,"Day 2, red, 215, batch 9, seq 36"
Test : Rate 1,"5.00000",mm/min

Time,Extension,Load
(s),(mm),(N)
"0.00000","0.00000","-0.42309"
"0.20000","0.01018","10.32922"
"0.40000","0.03276","55.89745"
"0.60000","0.04929","86.95480"
"0.80000","0.06652","117.09"
"1.00000","0.08366","147.782"
"1.20000","0.10039","176.979"
"1.40000","0.11652","205.143"
"1.60000","0.13365","235.313"
"1.80000","0.15028","263.228"
"2.00000","0.16651","290.664"
"2.20000","0.18334","318.821"
"2.40000","0.20038","347.271"
"2.60000","0.21711","375.63"
"2.80000","0.23334","403.729"
"3.00000","0.25057","431.724"
"3.20000","0.26720","458.449"
"3.40000","0.28323","483.526"
"3.60000","0.30016","510.784"
"3.80000","0.31700","538.491"
"4.00000","0.33332","564.794"
"4.20000","0.34975","591.494"
"4.40000","0.36699","618.326"
"4.60000","0.38342","644.542"
"4.80000","0.39985","670.151"
"5.00000","0.41688","695.615"
"5.20000","0.43361","721.295"
"5.40000","0.45004","747.418"
"5.60000","0.46678","771.589"
"5.80000","0.48381","798.709"
"6.00000","0.50034","821.634"
"6.20000","0.51667","846.274"
"6.40000","0.53340","870.732"
"6.60000","0.55023","894.668"
"6.80000","0.56646","917.087"
"7.00000","0.58349","940.697"
"7.20000","0.60002","963.278"
"7.40000","0.61655","986.602"
"7.60000","0.63308","1009.52"
"7.80000","0.65032","1033.89"
"8.00000","0.66655","1055.82"
"8.20000","0.68348","1079.51"
"8.40000","0.70042","1100.6"
"8.60000","0.71705","1122.57"
"8.80000","0.73327","1142.97"
"9.00000","0.75021","1165.6"
"9.20000","0.76714","1187.21"
"9.40000","0.78357","1208.55"
"9.60000","0.79970","1229.02"
"9.80000","0.81693","1250.06"
"10.00000","0.83366","1269.42"
"10.20000","0.84979","1288.8"
"10.40000","0.86672","1308.54"
"10.60000","0.88356","1328.7"
"10.80000","0.90009","1346.72"
"11.00000","0.91662","1365.25"
"11.20000","0.93345","1385.34"
"11.40000","0.95058","1403.73"
"11.60000","0.96651","1423.11"
"11.80000","0.98375","1442.58"
"12.00000","1.00028","1460.66"
"12.20000","1.01671","1479.94"
"12.40000","1.03344","1498.21"
"12.60000","1.05037","1516.9"
"12.80000","1.06660","1536.17"
"13.00000","1.08293","1554.65"
"13.20000","1.10016","1574.4"
"13.40000","1.11669","1593.43"
"13.60000","1.13322","1612.86"
"13.80000","1.15006","1631.69"
"14.00000","1.16729","1651.04"
"14.20000","1.18352","1667.46"
"14.40000","1.19975","1684.56"
"14.60000","1.21728","1702.75"
"14.80000","1.23351","1720"
"15.00000","1.24984","1736.75"
"15.20000","1.26688","1754.91"
"15.40000","1.28381","1772.66"
"15.60000","1.29983","1789"
"15.80000","1.31677","1806.79"
"16.00000","1.33330","1824.4"
"16.20000","1.35043","1842.42"
"16.40000","1.36636","1859.76"
"16.60000","1.38370","1877.55"
"16.80000","1.40033","1894.78"
"17.00000","1.41655","1911.86"
"17.20000","1.43349","1928.07"
"17.40000","1.45032","1945.18"
"17.60000","1.46685","1961.59"
"17.80000","1.48338","1977.96"
"18.00000","1.50031","1994.41"
"18.20000","1.51674","2011.07"
"18.40000","1.53317","2027.72"
"18.60000","1.55021","2044.91"
"18.80000","1.56724","2061.12"
"19.00000","1.58327","2077.04"
"19.20000","1.60010","2092.84"
"19.40000","1.61713","2108.93"
"19.60000","1.63346","2124.7"
"19.80000","1.64989","2141.77"
"20.00000","1.66693","2158.36"
"20.20000","1.68366","2175.67"
"20.40000","1.70009","2192.22"
"20.60000","1.71662","2208.82"
"20.80000","1.73365","2226.01"
"21.00000","1.75018","2242.34"
"21.20000","1.76651","2258.84"
"21.40000","1.78364","2275.25"
"21.60000","1.80028","2291.25"
"21.80000","1.81650","2305.79"
"22.00000","1.83374","2323.64"
"22.20000","1.85017","2339.91"
"22.40000","1.86690","2356.33"
"22.60000","1.88353","2372.61"
"22.80000","1.90036","2389.64"
"23.00000","1.91679","2405.81"
"23.20000","1.93302","2420.86"
"23.40000","1.95005","2438.55"
"23.60000","1.96699","2455.7"
"23.80000","1.98311","2471.53"
"24.00000","2.00005","2489.68"
"24.20000","2.01698","2505.62"
"24.40000","2.03341","2521.02"
"24.60000","2.04994","2537.17"
"24.80000","2.06697","2554.29"
"25.00000","2.08391","2570.02"
"25.20000","2.09993","2585.07"
"25.40000","2.11687","2602.67"
"25.60000","2.13360","2618.17"
"25.80000","2.15013","2635.53"
"26.00000","2.16656","2650.6"
"26.20000","2.18349","2668.07"
"26.40000","2.20022","2684.41"
"26.60000","2.21625","2699.64"
"26.80000","2.23369","2717.26"
"27.00000","2.25012","2733.65"
"27.20000","2.26675","2748.67"
"27.40000","2.28348","2765.1"
"27.60000","2.30021","2780.74"
"27.80000","2.31674","2797.35"
"28.00000","2.33327","2812.69"
"28.20000","2.35041","2830.42"
"28.40000","2.36704","2845.7"
"28.60000","2.38306","2861.41"
"28.80000","2.40020","2877.83"
"29.00000","2.41703","2893.44"
"29.20000","2.43316","2908.74"
"29.40000","2.44999","2924.35"
"29.60000","2.46692","2940.54"
"29.80000","2.48356","2957.1"
"30.00000","2.49998","2972.84"
"30.20000","2.51682","2989.93"
"30.40000","2.53395","3005.23"
"30.60000","2.54998","3020.41"
"30.80000","2.56691","3036.42"
"31.00000","2.58364","3052.97"
"31.20000","2.60007","3068.95"
"31.40000","2.61670","3084.65"
"31.60000","2.63374","3101.32"
"31.80000","2.64986","3115.78"
"32.00000","2.66660","3131.49"
"32.20000","2.68353","3147.72"
"32.40000","2.70016","3163.96"
"32.60000","2.71649","3178.64"
"32.80000","2.73322","3195.02"
"33.00000","2.75046","3211.87"
"33.20000","2.76689","3226.64"
"33.40000","2.78311","3241.5"
"33.60000","2.80045","3258.67"
"33.80000","2.81698","3275.05"
"34.00000","2.83341","3289.67"
"34.20000","2.85014","3305.92"
"34.40000","2.86687","3321.11"
"34.60000","2.88350","3337.63"
"34.80000","2.89983","3352.49"
"35.00000","2.91646","3367.96"
"35.20000","2.93350","3384.79"
"35.40000","2.94973","3398.74"
"35.60000","2.96706","3414.84"
"35.80000","2.98359","3429.67"
"36.00000","3.00002","3444.75"
"36.20000","3.01665","3459.79"
"36.40000","3.03379","3476.68"
"36.60000","3.05012","3492.28"
"36.80000","3.06675","3507.73"
"37.00000","3.08368","3523.54"
"37.20000","3.10021","3538.66"
"37.40000","3.11674","3553.07"
"37.60000","3.13327","3568.79"
"37.80000","3.15041","3584.95"
"38.00000","3.16684","3599.34"
"38.20000","3.18316","3613.4"
"38.40000","3.20040","3630"
"38.60000","3.21683","3643.7"
"38.80000","3.23326","3658.02"
"39.00000","3.25029","3673.58"
"39.20000","3.26702","3688.65"
"39.40000","3.28335","3702.68"
"39.60000","3.29998","3717.64"
"39.80000","3.31692","3731.99"
"40.00000","3.33375","3747.17"
"40.20000","3.34967","3760.96"
"40.40000","3.36691","3775.66"
"40.60000","3.38364","3789.39"
"40.80000","3.39987","3803.52"
"41.00000","3.41701","3818.62"
"41.20000","3.43374","3832.32"
"41.40000","3.45017","3846.73"
"41.60000","3.46670","3860.94"
"41.80000","3.48373","3875.12"
"42.00000","3.50026","3888.97"
"42.20000","3.51639","3902.24"
"42.40000","3.53362","3916.67"
"42.60000","3.55046","3930.73"
"42.80000","3.56658","3943.12"
"43.00000","3.58331","3957.52"
"43.20000","3.60055","3972.03"
"43.40000","3.61668","3983.8"
"43.60000","3.63341","3996.76"
"43.80000","3.65024","4010.22"
"44.00000","3.66707","4023.52"
"44.20000","3.68330","4035.56"
"44.40000","3.70003","4048.94"
"44.60000","3.71687","4062.14"
"44.80000","3.73360","4075.54"
"45.00000","3.74993","4086.43"
"45.20000","3.76696","4099.49"
"45.40000","3.78329","4111.25"
"45.60000","3.79972","4123.68"
"45.80000","3.81695","4136.2"
"46.00000","3.83348","4147.8"
"46.20000","3.85001","4159.32"
"46.40000","3.86665","4170.87"
"46.60000","3.88378","4183.54"
"46.80000","3.90021","4193.41"
"47.00000","3.91684","4204.32"
"47.20000","3.93357","4216.24"
"47.40000","3.95051","4226.81"
"47.60000","3.96663","4236.51"
"47.80000","3.98326","4246.09"
"48.00000","4.00060","4257.46"
"48.20000","4.01663","4266.72"
"48.40000","4.03316","4275.94"
"48.60000","4.05029","4286.29"
"48.80000","4.06692","4295.56"
"49.00000","4.08315","4303.5"
"49.20000","4.09998","4312.19"
"49.40000","4.11712","4321"
"49.60000","4.13345","4328.93"
"49.80000","4.14988","4335.04"
"50.00000","4.16701","4343.3"
"50.20000","4.18364","4348.77"
"50.40000","4.19987","4352.84"
"50.60000","4.21700","4358.15"
"50.80000","4.23323","4360.68"
"51.00000","4.24996","4363.32"
"51.20000","4.26680","4364.8"
"51.40000","4.28363","4365.42"
"51.60000","4.30006","4363.26"
"51.80000","4.31639","4360.12"
"52.00000","4.33372","4356.29"
"52.20000","4.35056","4349.33"
"52.40000","4.36638","4338.95"
"52.60000","4.38362","4325.97"
"52.80000","4.40055","4310.7"
"53.00000","4.41657","4288.75"
"53.20000","4.43331","4260.79"
"53.40000","4.45024","4226.06"
"53.60000","4.46707","4171.93"
"53.75200","4.47927","3863.7"
"53.76000","4.48008","3085.33"
"53.76600","4.48068","2383.83"