File: Data_Processing/Tensile-Data/Sequence_22.csv
General : Start date,"10/29/2024 9:57 AM"
General : End date,"10/29/2024 9:58 AM"
Specimen notes : Specimen note 1,"Day 2, blue, 215, batch 13, seq 22"
Test : Rate 1,"5.00000",mm/min

Time,Extension,Load
(s),(mm),(N)
"0.00000","-0.00010","0.99171"
"0.20000","0.00947","7.77312"
"0.40000","0.03135","47.56442"
"0.60000","0.04919","79.10521"
"0.80000","0.06632","110.018"
"1.00000","0.08315","139.313"
"1.20000","0.09999","165.514"
"1.40000","0.11672","193.077"
"1.60000","0.13375","220.972"
"1.80000","0.14978","247.423"
"2.00000","0.16661","274.785"
"2.20000","0.18375","301.91"
"2.40000","0.19997","329.062"
"2.60000","0.21681","355.503"
"2.80000","0.23374","382.31"
"3.00000","0.25027","409.325"
"3.20000","0.26660","435.801"
"3.40000","0.28363","462.893"
"3.60000","0.30026","488.169"
"3.80000","0.31690","513.921"
"4.00000","0.33332","537.68"
"4.20000","0.35026","564.507"
"4.40000","0.36689","588.847"
"4.60000","0.38302","613.301"
"4.80000","0.40025","640.062"
"5.00000","0.41718","665.743"
"5.20000","0.43341","689.376"
"5.40000","0.45004","712.939"
"5.60000","0.46698","737.282"
"5.80000","0.48341","761.185"
"6.00000","0.49994","784.339"
"6.20000","0.51687","808.786"
"6.40000","0.53350","833.465"
"6.60000","0.55013","855.81"
"6.80000","0.56676","879.752"
"7.00000","0.58370","902.901"
"7.20000","0.59992","925.768"
"7.40000","0.61666","947.405"
"7.60000","0.63349","972.156"
"7.80000","0.65032","995.424"
"8.00000","0.66645","1018.35"
"8.20000","0.68338","1041.1"
"8.40000","0.70042","1062.97"
"8.60000","0.71664","1084.41"
"8.80000","0.73337","1105.84"
"9.00000","0.75021","1128.71"
"9.20000","0.76704","1150.28"
"9.40000","0.78296","1171.51"
"9.60000","0.80040","1192.18"
"9.80000","0.81693","1212.12"
"10.00000","0.83326","1230.79"
"10.20000","0.85009","1250.91"
"10.40000","0.86713","1270.64"
"10.60000","0.88315","1289.77"
"10.80000","0.89968","1309.39"
"11.00000","0.91712","1329.26"
"11.20000","0.93355","1348.59"
"11.40000","0.94978","1366.18"
"11.60000","0.96691","1386.12"
"11.80000","0.98365","1403.97"
"12.00000","0.99987","1423.45"
"12.20000","1.01681","1442.64"
"12.40000","1.03364","1460.78"
"12.60000","1.05027","1479.35"
"12.80000","1.06660","1497.22"
"13.00000","1.08303","1514.86"
"13.20000","1.09986","1533.77"
"13.40000","1.11619","1551.56"
"13.60000","1.13353","1570.66"
"13.80000","1.15016","1588.25"
"14.00000","1.16659","1606.48"
"14.20000","1.18322","1624.04"
"14.40000","1.20045","1641.23"
"14.60000","1.21668","1660.61"
"14.80000","1.23341","1678.38"
"15.00000","1.25034","1696.17"
"15.20000","1.26698","1714.35"
"15.40000","1.28341","1730.71"
"15.60000","1.29983","1747.05"
"15.80000","1.31697","1764.45"
"16.00000","1.33350","1782.21"
"16.20000","1.34983","1797.28"
"16.40000","1.36696","1816.08"
"16.60000","1.38349","1832.53"
"16.80000","1.39992","1848.57"
"17.00000","1.41676","1865.55"
"17.20000","1.43349","1881.64"
"17.40000","1.44992","1897.91"
"17.60000","1.46665","1915.17"
"17.80000","1.48358","1931.72"
"18.00000","1.50041","1947.83"
"18.20000","1.51644","1962.09"
"18.40000","1.53368","1978.49"
"18.60000","1.55021","1993.5"
"18.80000","1.56653","2008.38"
"19.00000","1.58337","2025.34"
"19.20000","1.60020","2042.04"
"19.40000","1.61673","2056.28"
"19.60000","1.63316","2071.43"
"19.80000","1.65019","2087.14"
"20.00000","1.66703","2102.16"
"20.20000","1.68325","2117.56"
"20.40000","1.70019","2133.17"
"20.60000","1.71712","2148.54"
"20.80000","1.73345","2163.73"
"21.00000","1.74988","2178.21"
"21.20000","1.76711","2192.99"
"21.40000","1.78324","2209.15"
"21.60000","1.79987","2224.84"
"21.80000","1.81681","2239.51"
"22.00000","1.83364","2255.72"
"22.20000","1.84976","2270.56"
"22.40000","1.86670","2286.41"
"22.60000","1.88353","2301.69"
"22.80000","1.90036","2316.51"
"23.00000","1.91629","2331.12"
"23.20000","1.93373","2347.77"
"23.40000","1.95016","2361.85"
"23.60000","1.96648","2376.5"
"23.80000","1.98362","2392.46"
"24.00000","2.00025","2407.64"
"24.20000","2.01658","2422.59"
"24.40000","2.03321","2437.78"
"24.60000","2.05024","2453.1"
"24.80000","2.06687","2468.23"
"25.00000","2.08320","2483.08"
"25.20000","2.10014","2498.61"
"25.40000","2.11727","2513.92"
"25.60000","2.13320","2528.73"
"25.80000","2.14993","2543.72"
"26.00000","2.16726","2559.51"
"26.20000","2.18319","2574.35"
"26.40000","2.19982","2588.58"
"26.60000","2.21706","2603.57"
"26.80000","2.23359","2618.34"
"27.00000","2.24992","2633.77"
"27.20000","2.26665","2649.36"
"27.40000","2.28368","2664.67"
"27.60000","2.30001","2679.15"
"27.80000","2.31664","2694.65"
"28.00000","2.33368","2710.39"
"28.20000","2.35021","2724.24"
"28.40000","2.36633","2738.08"
"28.60000","2.38367","2753.88"
"28.80000","2.40010","2768.82"
"29.00000","2.41683","2783.63"
"29.20000","2.43346","2797.89"
"29.40000","2.45019","2813.68"
"29.60000","2.46662","2827.18"
"29.80000","2.48315","2841.46"
"30.00000","2.50019","2856.66"
"30.20000","2.51702","2871.18"
"30.40000","2.53294","2884.69"
"30.60000","2.55008","2899.69"
"30.80000","2.56691","2914.71"
"31.00000","2.58314","2928.75"
"31.20000","2.60007","2942.54"
"31.40000","2.61711","2957.71"
"31.60000","2.63374","2972.15"
"31.80000","2.64997","2984.96"
"32.00000","2.66670","2999.99"
"32.20000","2.68373","3014.31"
"32.40000","2.69996","3027.98"
"32.60000","2.71659","3041.64"
"32.80000","2.73362","3057.2"
"33.00000","2.75015","3070.21"
"33.20000","2.76638","3083.7"
"33.40000","2.78382","3099.98"
"33.60000","2.80025","3112.74"
"33.80000","2.81678","3128.17"
"34.00000","2.83351","3140.58"
"34.20000","2.85044","3155.51"
"34.40000","2.86687","3169.01"
"34.60000","2.88320","3182.67"
"34.80000","2.90024","3197.29"
"35.00000","2.91707","3210.69"
"35.20000","2.93320","3223.11"
"35.40000","2.95003","3237.19"
"35.60000","2.96686","3250.55"
"35.80000","2.98309","3265.09"
"36.00000","3.00012","3279.59"
"36.20000","3.01685","3293.05"
"36.40000","3.03359","3307.05"
"36.60000","3.05012","3320"
"36.80000","3.06685","3334.5"
"37.00000","3.08388","3347.33"
"37.20000","3.09991","3360.16"
"37.40000","3.11694","3375.76"
"37.60000","3.13377","3388.03"
"37.80000","3.14990","3400.78"
"38.00000","3.16643","3414.41"
"38.20000","3.18387","3427.93"
"38.40000","3.19990","3440.78"
"38.60000","3.21653","3454.04"
"38.80000","3.23346","3466.7"
"39.00000","3.25009","3479.35"
"39.20000","3.26652","3492.55"
"39.40000","3.28315","3505.31"
"39.60000","3.30029","3519.33"
"39.80000","3.31692","3531.83"
"40.00000","3.33325","3544.79"
"40.20000","3.35048","3558.11"
"40.40000","3.36681","3570.41"
"40.60000","3.38304","3581.88"
"40.80000","3.40017","3594.12"
"41.00000","3.41701","3606.48"
"41.20000","3.43323","3618.76"
"41.40000","3.45007","3631.77"
"41.60000","3.46660","3644.09"
"41.80000","3.48363","3653.55"
"42.00000","3.49996","3664.46"
"42.20000","3.51719","3677.71"
"42.40000","3.53352","3688.55"
"42.60000","3.55015","3699.79"
"42.80000","3.56668","3709.84"
"43.00000","3.58382","3722.77"
"43.20000","3.60005","3733.71"
"43.40000","3.61658","3745.25"
"43.60000","3.63351","3756.21"
"43.80000","3.65014","3766.21"
"44.00000","3.66667","3777.16"
"44.20000","3.68340","3788.88"
"44.40000","3.70024","3799.89"
"44.60000","3.71687","3809.19"
"44.80000","3.73330","3818.03"
"45.00000","3.75033","3828.84"
"45.20000","3.76686","3839.88"
"45.40000","3.78329","3848.18"
"45.60000","3.80032","3857.64"
"45.80000","3.81695","3867.94"
"46.00000","3.83338","3876.68"
"46.20000","3.85001","3885.43"
"46.40000","3.86675","3893.61"
"46.60000","3.88348","3902.24"
"46.80000","3.89971","3909.74"
"47.00000","3.91694","3917.31"
"47.20000","3.93377","3925.29"
"47.40000","3.94980","3931.55"
"47.60000","3.96673","3938.14"
"47.80000","3.98387","3943.75"
"48.00000","4.00030","3948.14"
"48.20000","4.01673","3952.58"
"48.40000","4.03376","3956.24"
"48.60000","4.05009","3959.68"
"48.80000","4.06652","3961.23"
"49.00000","4.08335","3962.89"
"49.20000","4.10018","3961.17"
"49.40000","4.11651","3959.53"
"49.60000","4.13335","3957.43"
"49.80000","4.15048","3953.73"
"50.00000","4.16671","3948.11"
"50.20000","4.18324","3940.53"
"50.40000","4.20037","3931.61"
"50.60000","4.21710","3918.6"
"50.80000","4.23303","3900.19"
"51.00000","4.25037","3876.56"
"51.20000","4.26690","3835.25"
"51.40000","4.28353","3449.89"
"51.40800","4.28423","2738.02"
"51.41400","4.28484","2106.4"