File: Data_Processing/Tensile-Data/Sequence_45.csv
General : Start date,"10/29/2024 10:54 AM"
General : End date,"10/29/2024 10:55 AM"
Specimen notes : Specimen note 1,"Day 2, green, 215, batch 13, seq 45"
Test : Rate 1,"5.00000",mm/min

Time,Extension,Load
(s),(mm),(N)
"0.00000","0.00010","0.16773"
"0.20000","0.01260","14.33385"
"0.40000","0.03457","55.95782"
"0.60000","0.05171","83.85130"
"0.80000","0.06904","112.62"
"1.00000","0.08567","140.085"
"1.20000","0.10220","165.739"
"1.40000","0.11924","194.009"
"1.60000","0.13597","221.037"
"1.80000","0.15260","246.339"
"2.00000","0.16883","271.661"
"2.20000","0.18596","298.641"
"2.40000","0.20249","324.23"
"2.60000","0.21882","348.134"
"2.80000","0.23606","375.062"
"3.00000","0.25279","401.584"
"3.20000","0.26882","424.737"
"3.40000","0.28575","448.809"
"3.60000","0.30238","474.035"
"3.80000","0.31891","497.295"
"4.00000","0.33554","520.278"
"4.20000","0.35237","544.808"
"4.40000","0.36921","567.057"
"4.60000","0.38564","589.878"
"4.80000","0.40257","612.767"
"5.00000","0.41950","635.479"
"5.20000","0.43593","656.757"
"5.40000","0.45226","676.458"
"5.60000","0.46930","698.05"
"5.80000","0.48583","718.186"
"6.00000","0.50205","738.965"
"6.20000","0.51919","760.353"
"6.40000","0.53592","780.81"
"6.60000","0.55225","800.114"
"6.80000","0.56888","819.818"
"7.00000","0.58601","839.594"
"7.20000","0.60244","859.618"
"7.40000","0.61887","878.993"
"7.60000","0.63611","899.755"
"7.80000","0.65264","918.414"
"8.00000","0.66877","936.589"
"8.20000","0.68590","955.747"
"8.40000","0.70253","975.31"
"8.60000","0.71896","993.447"
"8.80000","0.73539","1011.75"
"9.00000","0.75242","1030.2"
"9.20000","0.76906","1049.04"
"9.40000","0.78508","1066.05"
"9.60000","0.80252","1084.1"
"9.80000","0.81895","1100.75"
"10.00000","0.83588","1118.98"
"10.20000","0.85251","1136.75"
"10.40000","0.86935","1153.23"
"10.60000","0.88577","1169.65"
"10.80000","0.90230","1183.98"
"11.00000","0.91934","1200.69"
"11.20000","0.93597","1217.65"
"11.40000","0.95220","1232.55"
"11.60000","0.96903","1247.5"
"11.80000","0.98606","1262.09"
"12.00000","1.00199","1277.43"
"12.20000","1.01882","1292.18"
"12.40000","1.03606","1306.14"
"12.60000","1.05249","1321.3"
"12.80000","1.06871","1336.01"
"13.00000","1.08565","1352.38"
"13.20000","1.10278","1368.58"
"13.40000","1.11901","1382.98"
"13.60000","1.13574","1398.82"
"13.80000","1.15247","1414.08"
"14.00000","1.16931","1429.13"
"14.20000","1.18543","1444.25"
"14.40000","1.20277","1460.1"
"14.60000","1.21910","1475.8"
"14.80000","1.23543","1490.22"
"15.00000","1.25236","1505.99"
"15.20000","1.26899","1520.71"
"15.40000","1.28552","1534.52"
"15.60000","1.30225","1549.94"
"15.80000","1.31939","1565.08"
"16.00000","1.33612","1580.36"
"16.20000","1.35215","1594.06"
"16.40000","1.36918","1609.45"
"16.60000","1.38601","1623.51"
"16.80000","1.40224","1637.23"
"17.00000","1.41897","1652.21"
"17.20000","1.43601","1667.01"
"17.40000","1.45223","1682.16"
"17.60000","1.46897","1695.73"
"17.80000","1.48560","1708.96"
"18.00000","1.50273","1723.54"
"18.20000","1.51866","1736.06"
"18.40000","1.53579","1751.63"
"18.60000","1.55273","1766.13"
"18.80000","1.56916","1780.53"
"19.00000","1.58548","1794.83"
"19.20000","1.60282","1810.02"
"19.40000","1.61915","1823.62"
"19.60000","1.63558","1837.69"
"19.80000","1.65251","1852.85"
"20.00000","1.66944","1865.82"
"20.20000","1.68537","1878.9"
"20.40000","1.70220","1894.47"
"20.60000","1.71944","1908.31"
"20.80000","1.73597","1921.72"
"21.00000","1.75210","1935.98"
"21.20000","1.76943","1949.94"
"21.40000","1.78596","1963.42"
"21.60000","1.80219","1976.4"
"21.80000","1.81912","1990.59"
"22.00000","1.83626","2003.53"
"22.20000","1.85239","2016.13"
"22.40000","1.86892","2031.47"
"22.60000","1.88585","2045.41"
"22.80000","1.90258","2059.05"
"23.00000","1.91871","2072.35"
"23.20000","1.93584","2087.1"
"23.40000","1.95257","2100.9"
"23.60000","1.96880","2114.93"
"23.80000","1.98563","2128.79"
"24.00000","2.00277","2142.55"
"24.20000","2.01930","2156.36"
"24.40000","2.03573","2170.22"
"24.60000","2.05276","2185.2"
"24.80000","2.06919","2199.5"
"25.00000","2.08552","2213.07"
"25.20000","2.10235","2227.54"
"25.40000","2.11929","2241.36"
"25.60000","2.13562","2256.47"
"25.80000","2.15215","2269.5"
"26.00000","2.16908","2284.92"
"26.20000","2.18561","2299.15"
"26.40000","2.20224","2312.96"
"26.60000","2.21927","2327.97"
"26.80000","2.23621","2341.4"
"27.00000","2.25223","2355.97"
"27.20000","2.26927","2370.27"
"27.40000","2.28570","2385.62"
"27.60000","2.30273","2400.12"
"27.80000","2.31876","2412.91"
"28.00000","2.33589","2428.44"
"28.20000","2.35242","2443.36"
"28.40000","2.36875","2455.97"
"28.60000","2.38579","2471.13"
"28.80000","2.40252","2486.19"
"29.00000","2.41905","2500.34"
"29.20000","2.43568","2515.16"
"29.40000","2.45251","2529.1"
"29.60000","2.46924","2543.85"
"29.80000","2.48557","2557.95"
"30.00000","2.50240","2573.67"
"30.20000","2.51934","2587.55"
"30.40000","2.53577","2601.87"
"30.60000","2.55230","2616.9"
"30.80000","2.56933","2631.25"
"31.00000","2.58556","2645.35"
"31.20000","2.60219","2660.08"
"31.40000","2.61912","2675"
"31.60000","2.63596","2689.82"
"31.80000","2.65228","2704"
"32.00000","2.66902","2719.22"
"32.20000","2.68615","2733.53"
"32.40000","2.70258","2747.63"
"32.60000","2.71901","2761.61"
"32.80000","2.73604","2776.37"
"33.00000","2.75247","2791.21"
"33.20000","2.76890","2805.75"
"33.40000","2.78604","2820.58"
"33.60000","2.80247","2835.62"
"33.80000","2.81910","2849.45"
"34.00000","2.83553","2863.52"
"34.20000","2.85246","2878.15"
"34.40000","2.86889","2891.89"
"34.60000","2.88552","2906.48"
"34.80000","2.90255","2921.78"
"35.00000","2.91939","2935.15"
"35.20000","2.93541","2949.42"
"35.40000","2.95255","2963.89"
"35.60000","2.96948","2977.28"
"35.80000","2.98551","2992.08"
"36.00000","3.00234","3006.98"
"36.20000","3.01937","3020.69"
"36.40000","3.03601","3035.59"
"36.60000","3.05193","3048.62"
"36.80000","3.06907","3064.47"
"37.00000","3.08570","3077.37"
"37.20000","3.10223","3092.78"
"37.40000","3.11906","3107.22"
"37.60000","3.13599","3121.41"
"37.80000","3.15262","3135.73"
"38.00000","3.16885","3149.68"
"38.20000","3.18619","3163.16"
"38.40000","3.20231","3176.56"
"38.60000","3.21905","3190.56"
"38.80000","3.23588","3204.95"
"39.00000","3.25261","3217.91"
"39.20000","3.26894","3232.88"
"39.40000","3.28527","3246.03"
"39.60000","3.30260","3260.19"
"39.80000","3.31924","3273.98"
"40.00000","3.33546","3288.07"
"40.20000","3.35260","3302.58"
"40.40000","3.36923","3315.26"
"40.60000","3.38556","3330.04"
"40.80000","3.40239","3344.32"
"41.00000","3.41922","3357.29"
"41.20000","3.43585","3370.95"
"41.40000","3.45238","3384.73"
"41.60000","3.46881","3397.84"
"41.80000","3.48615","3411.76"
"42.00000","3.50218","3424.5"
"42.20000","3.51921","3439.17"
"42.40000","3.53584","3451.83"
"42.60000","3.55247","3464.95"
"42.80000","3.56880","3478.44"
"43.00000","3.58614","3493.54"
"43.20000","3.60226","3505.78"
"43.40000","3.61900","3519.7"
"43.60000","3.63603","3532.91"
"43.80000","3.65266","3545.83"
"44.00000","3.66889","3558.34"
"44.20000","3.68562","3571.52"
"44.40000","3.70286","3586.19"
"44.60000","3.71918","3598.48"
"44.80000","3.73521","3610.49"
"45.00000","3.75265","3624.59"
"45.20000","3.76938","3637.14"
"45.40000","3.78551","3650.27"
"45.60000","3.80244","3662.86"
"45.80000","3.81917","3677.2"
"46.00000","3.83570","3688.94"
"46.20000","3.85233","3702.22"
"46.40000","3.86906","3714.19"
"46.60000","3.88600","3727.19"
"46.80000","3.90202","3738.85"
"47.00000","3.91926","3751.54"
"47.20000","3.93589","3763.18"
"47.40000","3.95242","3775.44"
"47.60000","3.96885","3786.03"
"47.80000","3.98609","3798.82"
"48.00000","4.00231","3810.54"
"48.20000","4.01894","3822.08"
"48.40000","4.03608","3833.54"
"48.60000","4.05271","3844.65"
"48.80000","4.06894","3855.56"
"49.00000","4.08567","3866.26"
"49.20000","4.10270","3877.63"
"49.40000","4.11923","3887.6"
"49.60000","4.13546","3898.43"
"49.80000","4.15300","3909.56"
"50.00000","4.16903","3919.34"
"50.20000","4.18556","3928.01"
"50.40000","4.20249","3937.59"
"50.60000","4.21922","3947.39"
"50.80000","4.23555","3956.58"
"51.00000","4.25228","3964.7"
"51.20000","4.26911","3973.96"
"51.40000","4.28605","3981"
"51.60000","4.30217","3988.69"
"51.80000","4.31941","3995.8"
"52.00000","4.33604","4002.08"
"52.20000","4.35247","4008.01"
"52.40000","4.36900","4012.29"
"52.60000","4.38593","4016.52"
"52.80000","4.40216","4020.01"
"53.00000","4.41889","4022.9"
"53.20000","4.43583","4024.92"
"53.40000","4.45246","4025.83"
"53.60000","4.46889","4025.05"
"53.80000","4.48572","4023.13"
"54.00000","4.50285","4022.57"
"54.20000","4.51898","4018.35"
"54.40000","4.53551","4012.7"
"54.60000","4.55285","4005.94"
"54.80000","4.56908","3997.36"
"55.00000","4.58571","3985.8"
"55.20000","4.60244","3971.57"
"55.40000","4.61947","3954.61"
"55.60000","4.63550","3929.74"
"55.80000","4.65233","3892.4"
"56.00000","4.66906","3780.24"
"56.02400","4.67118","3187.41"
"56.03200","4.67209","2362.51"
"56.03400","4.67229","2149.05"