File: Data_Processing/Tensile-Data/Sequence_30.csv
General : Start date,"10/29/2024 10:20 AM"
General : End date,"10/29/2024 10:21 AM"
Specimen notes : Specimen note 1,"Day 2, purple, 215, batch 7, seq 30"
Test : Rate 1,"5.00000",mm/min

Time,Extension,Load
(s),(mm),(N)
"0.00000","0.00010","-0.24024"
"0.20000","0.01068","12.05405"
"0.40000","0.03276","54.79767"
"0.60000","0.05009","82.45923"
"0.80000","0.06652","109.058"
"1.00000","0.08376","136.636"
"1.20000","0.10049","166.414"
"1.40000","0.11682","191.843"
"1.60000","0.13335","219.927"
"1.80000","0.15048","249.819"
"2.00000","0.16691","276.346"
"2.20000","0.18324","303.683"
"2.40000","0.20028","331.779"
"2.60000","0.21701","359.552"
"2.80000","0.23354","387.304"
"3.00000","0.25027","415.176"
"3.20000","0.26730","443.278"
"3.40000","0.28353","470.383"
"3.60000","0.30016","497.041"
"3.80000","0.31679","523.933"
"4.00000","0.33373","550.368"
"4.20000","0.34985","576.789"
"4.40000","0.36699","604.464"
"4.60000","0.38382","629.134"
"4.80000","0.39965","654.866"
"5.00000","0.41668","680.777"
"5.20000","0.43361","707.123"
"5.40000","0.45025","732.569"
"5.60000","0.46688","758.248"
"5.80000","0.48401","784.383"
"6.00000","0.50054","809.749"
"6.20000","0.51677","833.568"
"6.40000","0.53350","858.017"
"6.60000","0.55053","883.273"
"6.80000","0.56686","907.156"
"7.00000","0.58329","931.084"
"7.20000","0.60033","955.321"
"7.40000","0.61696","980.214"
"7.60000","0.63319","1002.69"
"7.80000","0.65032","1027.49"
"8.00000","0.66675","1050.48"
"8.20000","0.68338","1073.77"
"8.40000","0.70011","1096.68"
"8.60000","0.71695","1119.83"
"8.80000","0.73378","1143.95"
"9.00000","0.75001","1165.36"
"9.20000","0.76714","1187.54"
"9.40000","0.78367","1209.7"
"9.60000","0.80000","1231.3"
"9.80000","0.81703","1249.9"
"10.00000","0.83366","1271.31"
"10.20000","0.84999","1291.61"
"10.40000","0.86642","1311.13"
"10.60000","0.88346","1331.59"
"10.80000","0.90009","1352.68"
"11.00000","0.91672","1371.37"
"11.20000","0.93355","1392.3"
"11.40000","0.95048","1412.68"
"11.60000","0.96671","1432.01"
"11.80000","0.98314","1452.07"
"12.00000","1.00058","1473.04"
"12.20000","1.01691","1491.35"
"12.40000","1.03344","1510.18"
"12.60000","1.05037","1530.45"
"12.80000","1.06700","1550.48"
"13.00000","1.08313","1569.18"
"13.20000","1.10016","1590.46"
"13.40000","1.11679","1610.24"
"13.60000","1.13363","1629.84"
"13.80000","1.14975","1647.63"
"14.00000","1.16699","1668.35"
"14.20000","1.18362","1687.23"
"14.40000","1.19995","1705.21"
"14.60000","1.21708","1725.18"
"14.80000","1.23371","1743.37"
"15.00000","1.25014","1763.12"
"15.20000","1.26667","1781.02"
"15.40000","1.28381","1800.46"
"15.60000","1.30024","1819.69"
"15.80000","1.31657","1838.67"
"16.00000","1.33350","1858.72"
"16.20000","1.35053","1877.45"
"16.40000","1.36656","1895.55"
"16.60000","1.38359","1914.46"
"16.80000","1.40043","1932.37"
"17.00000","1.41676","1951.06"
"17.20000","1.43329","1969.57"
"17.40000","1.45042","1988.52"
"17.60000","1.46705","2007.4"
"17.80000","1.48328","2025.4"
"18.00000","1.50011","2043.72"
"18.20000","1.51725","2061.2"
"18.40000","1.53337","2078.28"
"18.60000","1.54990","2095.41"
"18.80000","1.56704","2113.29"
"19.00000","1.58367","2131.34"
"19.20000","1.59980","2147.57"
"19.40000","1.61713","2166.27"
"19.60000","1.63356","2183.42"
"19.80000","1.65019","2201.14"
"20.00000","1.66703","2217.87"
"20.20000","1.68376","2234.96"
"20.40000","1.69999","2252.63"
"20.60000","1.71652","2268.97"
"20.80000","1.73375","2287.3"
"21.00000","1.75038","2302.43"
"21.20000","1.76651","2318.5"
"21.40000","1.78344","2334.88"
"21.60000","1.80028","2351.86"
"21.80000","1.81670","2368.52"
"22.00000","1.83364","2385.38"
"22.20000","1.85047","2402.18"
"22.40000","1.86700","2419.06"
"22.60000","1.88343","2435.61"
"22.80000","1.90026","2452.53"
"23.00000","1.91709","2468.97"
"23.20000","1.93332","2484.39"
"23.40000","1.95016","2501.34"
"23.60000","1.96689","2518.13"
"23.80000","1.98342","2535.51"
"24.00000","1.99985","2549.44"
"24.20000","2.01718","2566.75"
"24.40000","2.03341","2583.78"
"24.60000","2.05014","2599.02"
"24.80000","2.06687","2616.04"
"25.00000","2.08381","2631.41"
"25.20000","2.10014","2648.36"
"25.40000","2.11677","2665.1"
"25.60000","2.13370","2682.26"
"25.80000","2.15033","2698.39"
"26.00000","2.16656","2713.55"
"26.20000","2.18369","2730.65"
"26.40000","2.20022","2746.08"
"26.60000","2.21655","2761.56"
"26.80000","2.23339","2777.74"
"27.00000","2.25022","2794.26"
"27.20000","2.26705","2810.56"
"27.40000","2.28348","2826.69"
"27.60000","2.30021","2843.76"
"27.80000","2.31735","2860.21"
"28.00000","2.33327","2874.78"
"28.20000","2.35051","2890.1"
"28.40000","2.36704","2906.25"
"28.60000","2.38357","2922.72"
"28.80000","2.40010","2937.62"
"29.00000","2.41723","2954"
"29.20000","2.43336","2968.19"
"29.40000","2.44979","2983.07"
"29.60000","2.46682","3000"
"29.80000","2.48366","3015.6"
"30.00000","2.49988","3030.97"
"30.20000","2.51672","3047.34"
"30.40000","2.53385","3062.96"
"30.60000","2.55018","3078.24"
"30.80000","2.56661","3094.03"
"31.00000","2.58384","3111.05"
"31.20000","2.60038","3125.5"
"31.40000","2.61680","3140.7"
"31.60000","2.63374","3155.91"
"31.80000","2.65047","3170.53"
"32.00000","2.66660","3185.51"
"32.20000","2.68343","3200.39"
"32.40000","2.69986","3214.63"
"32.60000","2.71679","3231.03"
"32.80000","2.73312","3245.4"
"33.00000","2.75046","3261.31"
"33.20000","2.76719","3275.1"
"33.40000","2.78332","3290.58"
"33.60000","2.80025","3305.53"
"33.80000","2.81708","3320.82"
"34.00000","2.83341","3335.49"
"34.20000","2.85024","3350.71"
"34.40000","2.86718","3365.4"
"34.60000","2.88350","3380.1"
"34.80000","2.90003","3393.24"
"35.00000","2.91677","3409.81"
"35.20000","2.93380","3424.26"
"35.40000","2.95013","3438.68"
"35.60000","2.96676","3451.55"
"35.80000","2.98359","3468.04"
"36.00000","3.00022","3482.32"
"36.20000","3.01665","3496.12"
"36.40000","3.03369","3511.4"
"36.60000","3.05052","3525.89"
"36.80000","3.06665","3539.89"
"37.00000","3.08338","3554.38"
"37.20000","3.10041","3568.06"
"37.40000","3.11704","3581.95"
"37.60000","3.13317","3594.26"
"37.80000","3.15031","3609.36"
"38.00000","3.16704","3622.92"
"38.20000","3.18326","3635.91"
"38.40000","3.20050","3650.03"
"38.60000","3.21693","3663.05"
"38.80000","3.23376","3676.87"
"39.00000","3.24999","3688.27"
"39.20000","3.26692","3703.04"
"39.40000","3.28365","3715.27"
"39.60000","3.29978","3726.62"
"39.80000","3.31712","3739.35"
"40.00000","3.33385","3752.06"
"40.20000","3.34998","3762.11"
"40.40000","3.36681","3772.4"
"40.60000","3.38374","3783.99"
"40.80000","3.40017","3793.41"
"41.00000","3.41680","3804.18"
"41.20000","3.43374","3812.89"
"41.40000","3.45057","3822.57"
"41.60000","3.46660","3828.06"
"41.80000","3.48353","3834.9"
"42.00000","3.50046","3841.42"
"42.20000","3.51679","3845.23"
"42.40000","3.53332","3847.46"
"42.60000","3.55025","3848.8"
"42.80000","3.56678","3849.01"
"43.00000","3.58311","3843.9"
"43.20000","3.60045","3836.04"
"43.40000","3.61678","3821.06"
"43.60000","3.63331","3791.44"
"43.80000","3.65014","3694.64"
"43.82200","3.65216","3110.41"
"43.83000","3.65296","2299.78"
"43.83200","3.65327","2091.2"