File: Data_Processing/Tensile-Data/Sequence_42.csv
General : Start date,"10/29/2024 10:49 AM"
General : End date,"10/29/2024 10:49 AM"
Specimen notes : Specimen note 1,"Day 2, black, 230, batch 5, seq 42"
Test : Rate 1,"5.00000",mm/min

Time,Extension,Load
(s),(mm),(N)
"0.00000","0.00000","1.16078"
"0.20000","0.00998","11.48998"
"0.40000","0.03225","53.72196"
"0.60000","0.04959","83.01560"
"0.80000","0.06632","109.82"
"1.00000","0.08336","138.205"
"1.20000","0.10039","164.9"
"1.40000","0.11692","191.336"
"1.60000","0.13315","217.26"
"1.80000","0.15038","244.384"
"2.00000","0.16702","269.507"
"2.20000","0.18324","296.204"
"2.40000","0.20018","322.448"
"2.60000","0.21711","349.281"
"2.80000","0.23314","373.995"
"3.00000","0.24987","399.228"
"3.20000","0.26680","423.641"
"3.40000","0.28333","447.433"
"3.60000","0.29966","472.007"
"3.80000","0.31679","496.92"
"4.00000","0.33332","520.07"
"4.20000","0.34996","544.925"
"4.40000","0.36679","569.248"
"4.60000","0.38382","591.913"
"4.80000","0.40025","614.513"
"5.00000","0.41648","635.164"
"5.20000","0.43372","658.512"
"5.40000","0.45014","679.612"
"5.60000","0.46637","699.228"
"5.80000","0.48351","720.941"
"6.00000","0.50024","742.558"
"6.20000","0.51647","762.317"
"6.40000","0.53320","782.365"
"6.60000","0.55033","802.623"
"6.80000","0.56676","822.581"
"7.00000","0.58329","842.475"
"7.20000","0.60023","861.853"
"7.40000","0.61696","880.675"
"7.60000","0.63308","896.126"
"7.80000","0.65012","911.65"
"8.00000","0.66665","928.692"
"8.20000","0.68358","945.105"
"8.40000","0.69981","961.472"
"8.60000","0.71674","977.918"
"8.80000","0.73337","994.233"
"9.00000","0.74950","1010.46"
"9.20000","0.76684","1028.87"
"9.40000","0.78307","1044.91"
"9.60000","0.80020","1062.41"
"9.80000","0.81673","1078.45"
"10.00000","0.83376","1094.45"
"10.20000","0.85019","1110.76"
"10.40000","0.86652","1125.8"
"10.60000","0.88336","1142.03"
"10.80000","0.90039","1158"
"11.00000","0.91662","1174.21"
"11.20000","0.93315","1190.39"
"11.40000","0.95028","1206.95"
"11.60000","0.96651","1222.85"
"11.80000","0.98314","1238.12"
"12.00000","1.00018","1254.82"
"12.20000","1.01691","1270.91"
"12.40000","1.03313","1285.59"
"12.60000","1.04987","1300.95"
"12.80000","1.06710","1316.92"
"13.00000","1.08343","1332.17"
"13.20000","1.09986","1348.11"
"13.40000","1.11699","1363.64"
"13.60000","1.13363","1377.92"
"13.80000","1.14965","1392.68"
"14.00000","1.16699","1407.46"
"14.20000","1.18332","1422.36"
"14.40000","1.19965","1436.33"
"14.60000","1.21648","1451.35"
"14.80000","1.23331","1466.34"
"15.00000","1.24994","1479.63"
"15.20000","1.26657","1494.19"
"15.40000","1.28371","1508.93"
"15.60000","1.30044","1523.8"
"15.80000","1.31647","1537.8"
"16.00000","1.33340","1552.92"
"16.20000","1.35033","1567.65"
"16.40000","1.36656","1582.84"
"16.60000","1.38329","1597.3"
"16.80000","1.40033","1612.77"
"17.00000","1.41676","1627.08"
"17.20000","1.43308","1641.15"
"17.40000","1.45012","1657.16"
"17.60000","1.46705","1671.33"
"17.80000","1.48308","1686.41"
"18.00000","1.50001","1700.56"
"18.20000","1.51694","1715.18"
"18.40000","1.53337","1729.24"
"18.60000","1.54990","1743.86"
"18.80000","1.56724","1760.3"
"19.00000","1.58337","1774.27"
"19.20000","1.59990","1788.83"
"19.40000","1.61673","1804.05"
"19.60000","1.63366","1819.46"
"19.80000","1.64989","1834.5"
"20.00000","1.66652","1848.98"
"20.20000","1.68346","1863.27"
"20.40000","1.70019","1878.04"
"20.60000","1.71631","1892.25"
"20.80000","1.73375","1909.41"
"21.00000","1.75028","1922.94"
"21.20000","1.76661","1937.32"
"21.40000","1.78334","1952.61"
"21.60000","1.80048","1967.76"
"21.80000","1.81681","1982.64"
"22.00000","1.83334","1997.09"
"22.20000","1.84976","2011.87"
"22.40000","1.86700","2027.23"
"22.60000","1.88313","2042"
"22.80000","1.90006","2058.37"
"23.00000","1.91689","2073.13"
"23.20000","1.93342","2088.67"
"23.40000","1.94975","2101.98"
"23.60000","1.96709","2117.5"
"23.80000","1.98362","2133.94"
"24.00000","2.00005","2147.42"
"24.20000","2.01698","2162.85"
"24.40000","2.03361","2178.67"
"24.60000","2.04984","2193.22"
"24.80000","2.06657","2209.15"
"25.00000","2.08361","2224.26"
"25.20000","2.10014","2238.52"
"25.40000","2.11626","2253.07"
"25.60000","2.13330","2269.43"
"25.80000","2.15013","2284.04"
"26.00000","2.16656","2298.27"
"26.20000","2.18359","2313.88"
"26.40000","2.20033","2329.07"
"26.60000","2.21665","2344.65"
"26.80000","2.23339","2359.55"
"27.00000","2.25012","2375.29"
"27.20000","2.26715","2390.16"
"27.40000","2.28308","2405.12"
"27.60000","2.30021","2421.53"
"27.80000","2.31684","2435.95"
"28.00000","2.33307","2451.22"
"28.20000","2.34990","2466.76"
"28.40000","2.36704","2482.79"
"28.60000","2.38337","2497.36"
"28.80000","2.40000","2512.29"
"29.00000","2.41693","2529.12"
"29.20000","2.43366","2543.33"
"29.40000","2.44999","2558.18"
"29.60000","2.46642","2574.05"
"29.80000","2.48366","2588.22"
"30.00000","2.49988","2603.28"
"30.20000","2.51641","2617.89"
"30.40000","2.53375","2634.36"
"30.60000","2.54998","2649.45"
"30.80000","2.56641","2664.18"
"31.00000","2.58344","2679.82"
"31.20000","2.60017","2695.53"
"31.40000","2.61670","2711.35"
"31.60000","2.63364","2726.51"
"31.80000","2.65027","2742.09"
"32.00000","2.66700","2756.72"
"32.20000","2.68323","2771.55"
"32.40000","2.70046","2786.73"
"32.60000","2.71669","2801.61"
"32.80000","2.73342","2817.49"
"33.00000","2.75026","2832.28"
"33.20000","2.76689","2847.42"
"33.40000","2.78332","2863.98"
"33.60000","2.79974","2878.62"
"33.80000","2.81668","2893.06"
"34.00000","2.83331","2908.4"
"34.20000","2.84994","2922.84"
"34.40000","2.86677","2939.47"
"34.60000","2.88361","2954.41"
"34.80000","2.89983","2968.84"
"35.00000","2.91667","2984.34"
"35.20000","2.93390","2999.88"
"35.40000","2.95003","3014.76"
"35.60000","2.96666","3029.46"
"35.80000","2.98349","3044.71"
"36.00000","3.00032","3059.24"
"36.20000","3.01615","3073.29"
"36.40000","3.03338","3089.51"
"36.60000","3.04981","3103.91"
"36.80000","3.06665","3119.67"
"37.00000","3.08318","3134.17"
"37.20000","3.10021","3149.19"
"37.40000","3.11704","3163.04"
"37.60000","3.13317","3178.72"
"37.80000","3.15041","3193.01"
"38.00000","3.16684","3208.26"
"38.20000","3.18326","3221.75"
"38.40000","3.20010","3238.09"
"38.60000","3.21693","3253"
"38.80000","3.23336","3267.46"
"39.00000","3.24979","3280.96"
"39.20000","3.26652","3295.89"
"39.40000","3.28365","3311.82"
"39.60000","3.29978","3325.31"
"39.80000","3.31672","3340.43"
"40.00000","3.33365","3354.48"
"40.20000","3.34978","3368.26"
"40.40000","3.36661","3382.7"
"40.60000","3.38364","3397.03"
"40.80000","3.40037","3411.39"
"41.00000","3.41650","3425.85"
"41.20000","3.43323","3439.3"
"41.40000","3.45047","3454.28"
"41.60000","3.46649","3467.45"
"41.80000","3.48323","3482.76"
"42.00000","3.50016","3496.58"
"42.20000","3.51709","3510.1"
"42.40000","3.53292","3523.75"
"42.60000","3.55056","3539.05"
"42.80000","3.56689","3551.89"
"43.00000","3.58342","3565.41"
"43.20000","3.60015","3578.74"
"43.40000","3.61698","3592.14"
"43.60000","3.63321","3604.79"
"43.80000","3.64994","3617.85"
"44.00000","3.66707","3631.33"
"44.20000","3.68340","3643.88"
"44.40000","3.69963","3656.82"
"44.60000","3.71687","3669.08"
"44.80000","3.73370","3682.51"
"45.00000","3.74993","3695.27"
"45.20000","3.76666","3707.49"
"45.40000","3.78349","3719.62"
"45.60000","3.80022","3731.16"
"45.80000","3.81645","3741.55"
"46.00000","3.83338","3754.63"
"46.20000","3.85032","3765.41"
"46.40000","3.86654","3775.94"
"46.60000","3.88348","3786.86"
"46.80000","3.90011","3796.05"
"47.00000","3.91654","3806.62"
"47.20000","3.93327","3816.2"
"47.40000","3.95051","3824.92"
"47.60000","3.96653","3833.25"
"47.80000","3.98316","3841.1"
"48.00000","4.00010","3850.39"
"48.20000","4.01703","3856.38"
"48.40000","4.03326","3861.16"
"48.60000","4.04989","3866.76"
"48.80000","4.06682","3871.55"
"49.00000","4.08355","3873.96"
"49.20000","4.09978","3875.24"
"49.40000","4.11712","3876.72"
"49.60000","4.13355","3872.53"
"49.80000","4.14977","3864.13"
"50.00000","4.16671","3853.79"
"50.20000","4.18344","3833.9"
"50.40000","4.20007","3795.18"
"50.60000","4.21670","3675.14"
"50.63200","4.21962","3008.23"
"50.64000","4.22043","2197.17"