File: Data_Processing/Tensile-Data/Sequence_19.csv
General : Start date,"10/22/2024 10:08 AM"
General : End date,"10/22/2024 10:08 AM"
Specimen notes : Specimen note 1,"blue, 200, batch 10, seq 19"
Test : Rate 1,"5.00000",mm/min

Time,Extension,Load
(s),(mm),(N)
"0.00000","0.00000","0.26232"
"0.20000","0.01078","12.20794"
"0.40000","0.03306","54.16726"
"0.60000","0.04959","82.27934"
"0.80000","0.06703","111.978"
"1.00000","0.08386","140.581"
"1.20000","0.10029","167.613"
"1.40000","0.11692","185.347"
"1.60000","0.13385","206.096"
"1.80000","0.14988","230.459"
"2.00000","0.16691","256.311"
"2.20000","0.18355","282.885"
"2.40000","0.20058","310.432"
"2.60000","0.21681","337.254"
"2.80000","0.23324","363.243"
"3.00000","0.25037","390.535"
"3.20000","0.26690","417.775"
"3.40000","0.28333","443.072"
"3.60000","0.30047","471.092"
"3.80000","0.31700","498.997"
"4.00000","0.33332","524.335"
"4.20000","0.35026","551.28"
"4.40000","0.36669","578.732"
"4.60000","0.38352","604.585"
"4.80000","0.39985","631.483"
"5.00000","0.41698","659.087"
"5.20000","0.43382","686.703"
"5.40000","0.44984","712.182"
"5.60000","0.46708","738.774"
"5.80000","0.48381","764.847"
"6.00000","0.49994","790.534"
"6.20000","0.51677","816.994"
"6.40000","0.53370","843.215"
"6.60000","0.55013","869.517"
"6.80000","0.56636","894.42"
"7.00000","0.58380","922.632"
"7.20000","0.60043","947.322"
"7.40000","0.61666","972.975"
"7.60000","0.63339","999.716"
"7.80000","0.65062","1025.07"
"8.00000","0.66655","1050.34"
"8.20000","0.68328","1075.96"
"8.40000","0.70021","1101.5"
"8.60000","0.71684","1126.84"
"8.80000","0.73297","1152.48"
"9.00000","0.75021","1178.07"
"9.20000","0.76714","1205.28"
"9.40000","0.78347","1229.28"
"9.60000","0.79990","1254.46"
"9.80000","0.81693","1280.44"
"10.00000","0.83366","1304.88"
"10.20000","0.84959","1328.88"
"10.40000","0.86713","1355.57"
"10.60000","0.88366","1380.74"
"10.80000","0.89999","1404.22"
"11.00000","0.91692","1428.7"
"11.20000","0.93365","1453.61"
"11.40000","0.94978","1477.87"
"11.60000","0.96661","1502.35"
"11.80000","0.98365","1526.57"
"12.00000","1.00028","1551.41"
"12.20000","1.01671","1574.5"
"12.40000","1.03364","1598.69"
"12.60000","1.05047","1622.35"
"12.80000","1.06640","1646.06"
"13.00000","1.08353","1670"
"13.20000","1.10046","1694.12"
"13.40000","1.11689","1716.97"
"13.60000","1.13342","1738.32"
"13.80000","1.15006","1762.09"
"14.00000","1.16699","1785.06"
"14.20000","1.18312","1807.22"
"14.40000","1.20005","1831.18"
"14.60000","1.21688","1854.19"
"14.80000","1.23351","1876.85"
"15.00000","1.24984","1898.81"
"15.20000","1.26728","1922.03"
"15.40000","1.28341","1945.19"
"15.60000","1.30014","1967.26"
"15.80000","1.31687","1989.84"
"16.00000","1.33380","2012.7"
"16.20000","1.35003","2035.53"
"16.40000","1.36666","2056.46"
"16.60000","1.38370","2079.22"
"16.80000","1.40043","2100.4"
"17.00000","1.41655","2122.72"
"17.20000","1.43359","2144.07"
"17.40000","1.45022","2165.34"
"17.60000","1.46645","2185.49"
"17.80000","1.48348","2208.3"
"18.00000","1.50041","2229.15"
"18.20000","1.51684","2250.63"
"18.40000","1.53347","2271.02"
"18.60000","1.55021","2291.83"
"18.80000","1.56724","2314.04"
"19.00000","1.58317","2333.53"
"19.20000","1.60050","2355.73"
"19.40000","1.61713","2376.12"
"19.60000","1.63336","2396.64"
"19.80000","1.64969","2416.93"
"20.00000","1.66713","2438.47"
"20.20000","1.68356","2455.15"
"20.40000","1.70009","2474.24"
"20.60000","1.71682","2495.51"
"20.80000","1.73365","2515.66"
"21.00000","1.74978","2530.8"
"21.20000","1.76671","2549.57"
"21.40000","1.78385","2569.25"
"21.60000","1.80017","2589.34"
"21.80000","1.81660","2603.98"
"22.00000","1.83374","2620.98"
"22.20000","1.85017","2642.07"
"22.40000","1.86660","2661.24"
"22.60000","1.88363","2681.89"
"22.80000","1.90067","2702.55"
"23.00000","1.91649","2720.7"
"23.20000","1.93342","2738.85"
"23.40000","1.95016","2756.95"
"23.60000","1.96729","2769.24"
"23.80000","1.98301","2783.96"
"24.00000","2.00045","2803.35"
"24.20000","2.01698","2789.27"
"24.40000","2.03321","2786.76"
"24.60000","2.05014","2807.47"
"24.80000","2.06708","2828.5"
"25.00000","2.08340","2847.95"
"25.20000","2.10004","2866.87"
"25.40000","2.11677","2887.38"
"25.60000","2.13350","2907.21"
"25.80000","2.14973","2923.89"
"26.00000","2.16696","2943.5"
"26.20000","2.18379","2960.53"
"26.40000","2.20012","2978.31"
"26.60000","2.21675","2996.37"
"26.80000","2.23389","3015.12"
"27.00000","2.25002","3032.68"
"27.20000","2.26685","3050.37"
"27.40000","2.28358","3067.34"
"27.60000","2.30031","3085.55"
"27.80000","2.31664","3101.81"
"28.00000","2.33337","3118.07"
"28.20000","2.35031","3136.73"
"28.40000","2.36704","3152.56"
"28.60000","2.38306","3168.17"
"28.80000","2.40040","3186.31"
"29.00000","2.41693","3201.7"
"29.20000","2.43326","3217.98"
"29.40000","2.45039","3233.56"
"29.60000","2.46703","3249.55"
"29.80000","2.48366","3264.54"
"30.00000","2.50009","3279.47"
"30.20000","2.51692","3294.17"
"30.40000","2.53355","3307.36"
"30.60000","2.54978","3322.16"
"30.80000","2.56691","3336.97"
"31.00000","2.58384","3352.43"
"31.20000","2.59997","3365.02"
"31.40000","2.61680","3378.95"
"31.60000","2.63394","3393.65"
"31.80000","2.64997","3406.13"
"32.00000","2.66660","3419.24"
"32.20000","2.68363","3433.64"
"32.40000","2.70056","3447.42"
"32.60000","2.71669","3459.47"
"32.80000","2.73362","3471.07"
"33.00000","2.75046","3473.18"
"33.20000","2.76679","3481.5"
"33.40000","2.78321","3492.13"
"33.60000","2.80035","3501.43"
"33.80000","2.81668","3511.41"
"34.00000","2.83311","3456.42"
"34.20000","2.85044","3474.3"
"34.40000","2.86667","3488.87"
"34.60000","2.88350","3503.34"
"34.80000","2.90034","3517.89"
"35.00000","2.91707","3530.46"
"35.20000","2.93340","3542.14"
"35.40000","2.94993","3554.49"
"35.60000","2.96706","3526.9"
"35.80000","2.98389","3541.1"
"36.00000","2.99972","3554.65"
"36.20000","3.01695","3568.9"
"36.40000","3.03359","3581.28"
"36.60000","3.04981","3593.35"
"36.80000","3.06665","3604.08"
"37.00000","3.08368","3617.01"
"37.20000","3.10021","3616.93"
"37.40000","3.11664","3622.21"
"37.60000","3.13337","3629.47"
"37.80000","3.15061","3639.06"
"38.00000","3.16663","3645.5"
"38.20000","3.18357","3604.02"
"38.40000","3.20030","3608"
"38.60000","3.21673","3616.26"
"38.80000","3.23316","3623.38"
"39.00000","3.25049","3634.48"
"39.20000","3.26642","3643.47"
"39.40000","3.28335","3654.86"
"39.60000","3.30018","3664.28"
"39.80000","3.31712","3674.74"
"40.00000","3.33335","3684.86"
"40.20000","3.35008","3693.6"
"40.40000","3.36731","3701.69"
"40.60000","3.38374","3709.76"
"40.80000","3.39977","3715.97"
"41.00000","3.41711","3725.23"
"41.20000","3.43364","3733.71"
"41.40000","3.44996","3738.52"
"41.60000","3.46670","3745.86"
"41.80000","3.48363","3753.81"
"42.00000","3.50006","3758.3"
"42.20000","3.51659","3761.98"
"42.40000","3.53342","3770.62"
"42.60000","3.55056","3774.52"
"42.80000","3.56648","3777.86"
"43.00000","3.58362","3780.7"
"43.20000","3.60015","3784.14"
"43.40000","3.61678","3786.16"
"43.60000","3.63331","3784.69"
"43.80000","3.65054","3785.31"
"44.00000","3.66687","3782.28"
"44.20000","3.68350","3776.5"
"44.40000","3.70024","3770.11"
"44.60000","3.71717","3759.84"
"44.80000","3.73299","3743.24"
"45.00000","3.75013","3723.09"
"45.20000","3.76706","3686.78"
"45.40000","3.78379","3562.68"
"45.45800","3.78843","3008.56"
"45.46600","3.78924","2312.29"
"45.46800","3.78944","2119.05"