File: Data_Processing/Tensile-Data/Sequence_60.csv
General : Start date,"11/5/2024 8:54 AM"
General : End date,"11/5/2024 8:55 AM"
Specimen notes : Specimen note 1,"Day 3, green, 230, batch 15, seq 60"
Test : Rate 1,"5.00000",mm/min

Time,Extension,Load
(s),(mm),(N)
"0.00000","-0.00010","1.39060"
"0.20000","0.01018","11.55448"
"0.40000","0.03205","55.79150"
"0.60000","0.04969","86.72584"
"0.80000","0.06662","116.545"
"1.00000","0.08326","143.91"
"1.20000","0.10009","173.753"
"1.40000","0.11682","201.041"
"1.60000","0.13355","228.861"
"1.80000","0.15008","254.928"
"2.00000","0.16722","281.813"
"2.20000","0.18365","308.501"
"2.40000","0.19997","335.242"
"2.60000","0.21681","363.602"
"2.80000","0.23374","391.665"
"3.00000","0.24997","417.74"
"3.20000","0.26670","444.691"
"3.40000","0.28363","472.218"
"3.60000","0.30006","497.424"
"3.80000","0.31649","523.19"
"4.00000","0.33363","549.899"
"4.20000","0.35006","574.36"
"4.40000","0.36679","600.586"
"4.60000","0.38352","625.934"
"4.80000","0.40015","651.69"
"5.00000","0.41688","676.949"
"5.20000","0.43321","700.756"
"5.40000","0.45035","725.834"
"5.60000","0.46698","748.827"
"5.80000","0.48310","771.811"
"6.00000","0.50014","796.496"
"6.20000","0.51697","819.756"
"6.40000","0.53300","842.129"
"6.60000","0.55003","864.94"
"6.80000","0.56676","889.358"
"7.00000","0.58329","910.797"
"7.20000","0.59992","933.168"
"7.40000","0.61706","955.133"
"7.60000","0.63379","977.42"
"7.80000","0.65012","998.64"
"8.00000","0.66695","1019.24"
"8.20000","0.68368","1040.55"
"8.40000","0.70001","1060.25"
"8.60000","0.71644","1080.85"
"8.80000","0.73368","1101.86"
"9.00000","0.75021","1123.04"
"9.20000","0.76623","1140.63"
"9.40000","0.78357","1162.24"
"9.60000","0.79990","1181.32"
"9.80000","0.81673","1201.55"
"10.00000","0.83336","1221.46"
"10.20000","0.85050","1240.45"
"10.40000","0.86683","1259.49"
"10.60000","0.88325","1276.77"
"10.80000","0.90029","1296.69"
"11.00000","0.91692","1312.91"
"11.20000","0.93305","1330.48"
"11.40000","0.95008","1347.79"
"11.60000","0.96681","1366.15"
"11.80000","0.98284","1383.34"
"12.00000","0.99997","1398.46"
"12.20000","1.01681","1417.18"
"12.40000","1.03354","1433.38"
"12.60000","1.04987","1449.9"
"12.80000","1.06680","1466.37"
"13.00000","1.08373","1484.24"
"13.20000","1.09976","1498.82"
"13.40000","1.11669","1516.91"
"13.60000","1.13353","1532.53"
"13.80000","1.15016","1549.63"
"14.00000","1.16648","1565.76"
"14.20000","1.18362","1582.28"
"14.40000","1.19995","1599.07"
"14.60000","1.21668","1614.79"
"14.80000","1.23341","1632.14"
"15.00000","1.25004","1649.05"
"15.20000","1.26677","1665.83"
"15.40000","1.28310","1681.39"
"15.60000","1.30044","1700.06"
"15.80000","1.31677","1716.6"
"16.00000","1.33350","1732.81"
"16.20000","1.35033","1750.19"
"16.40000","1.36706","1766.76"
"16.60000","1.38319","1783.76"
"16.80000","1.40012","1799.42"
"17.00000","1.41696","1818.06"
"17.20000","1.43349","1834.15"
"17.40000","1.44971","1850.54"
"17.60000","1.46685","1869.19"
"17.80000","1.48378","1885.23"
"18.00000","1.49971","1900.74"
"18.20000","1.51684","1917.01"
"18.40000","1.53368","1934.47"
"18.60000","1.55011","1948.61"
"18.80000","1.56674","1964.98"
"19.00000","1.58357","1980.65"
"19.20000","1.60030","1998.26"
"19.40000","1.61653","2014.11"
"19.60000","1.63346","2031.77"
"19.80000","1.65019","2047.97"
"20.00000","1.66672","2064.45"
"20.20000","1.68325","2080.59"
"20.40000","1.70039","2097.41"
"20.60000","1.71672","2112.24"
"20.80000","1.73315","2128.55"
"21.00000","1.75028","2145.15"
"21.20000","1.76681","2161.71"
"21.40000","1.78324","2177.15"
"21.60000","1.80017","2193.7"
"21.80000","1.81711","2209.69"
"22.00000","1.83323","2224.49"
"22.20000","1.84966","2239.54"
"22.40000","1.86670","2257.95"
"22.60000","1.88333","2274.61"
"22.80000","1.89946","2290.04"
"23.00000","1.91699","2307.31"
"23.20000","1.93352","2323.29"
"23.40000","1.94995","2339.52"
"23.60000","1.96679","2354.75"
"23.80000","1.98342","2371.59"
"24.00000","2.00015","2387.22"
"24.20000","2.01668","2403.82"
"24.40000","2.03371","2419.92"
"24.60000","2.05004","2435.77"
"24.80000","2.06667","2450.55"
"25.00000","2.08340","2468.09"
"25.20000","2.10054","2484.41"
"25.40000","2.11646","2498.77"
"25.60000","2.13340","2514.42"
"25.80000","2.15013","2529.74"
"26.00000","2.16686","2547.03"
"26.20000","2.18319","2560.42"
"26.40000","2.19982","2577.18"
"26.60000","2.21696","2593.89"
"26.80000","2.23328","2609.43"
"27.00000","2.25002","2624.94"
"27.20000","2.26705","2641.83"
"27.40000","2.28358","2657.08"
"27.60000","2.29991","2673.14"
"27.80000","2.31694","2689.26"
"28.00000","2.33337","2704.41"
"28.20000","2.34970","2720.27"
"28.40000","2.36694","2735.63"
"28.60000","2.38337","2752.47"
"28.80000","2.40040","2767.49"
"29.00000","2.41663","2783.43"
"29.20000","2.43376","2799.3"
"29.40000","2.45029","2815.02"
"29.60000","2.46652","2828.35"
"29.80000","2.48345","2845.06"
"30.00000","2.50039","2862.33"
"30.20000","2.51662","2876.94"
"30.40000","2.53345","2892.46"
"30.60000","2.55018","2909.21"
"30.80000","2.56661","2923.53"
"31.00000","2.58314","2938.24"
"31.20000","2.59997","2954.7"
"31.40000","2.61691","2969.45"
"31.60000","2.63323","2984.4"
"31.80000","2.65017","3000.5"
"32.00000","2.66710","3015.47"
"32.20000","2.68333","3031.79"
"32.40000","2.69996","3046.09"
"32.60000","2.71730","3063.21"
"32.80000","2.73352","3076.13"
"33.00000","2.74965","3091.94"
"33.20000","2.76679","3106.98"
"33.40000","2.78332","3121.86"
"33.60000","2.79995","3135.92"
"33.80000","2.81638","3150.2"
"34.00000","2.83371","3167.83"
"34.20000","2.85014","3180.92"
"34.40000","2.86647","3196.23"
"34.60000","2.88371","3210.21"
"34.80000","2.90034","3225.71"
"35.00000","2.91646","3237.65"
"35.20000","2.93340","3254.06"
"35.40000","2.95043","3268.98"
"35.60000","2.96656","3283.63"
"35.80000","2.98329","3298.12"
"36.00000","3.00042","3313.03"
"36.20000","3.01706","3327.94"
"36.40000","3.03308","3340.48"
"36.60000","3.05012","3356.19"
"36.80000","3.06685","3369.82"
"37.00000","3.08318","3384.4"
"37.20000","3.10021","3397.98"
"37.40000","3.11694","3412.13"
"37.60000","3.13357","3425.89"
"37.80000","3.15000","3439.78"
"38.00000","3.16704","3453.82"
"38.20000","3.18357","3467.93"
"38.40000","3.20020","3482.72"
"38.60000","3.21663","3495.68"
"38.80000","3.23366","3511.03"
"39.00000","3.24989","3523.26"
"39.20000","3.26642","3537.71"
"39.40000","3.28365","3552.63"
"39.60000","3.30008","3565.67"
"39.80000","3.31661","3578.62"
"40.00000","3.33365","3592.23"
"40.20000","3.35018","3605.57"
"40.40000","3.36661","3617.9"
"40.60000","3.38324","3630.42"
"40.80000","3.40037","3645.68"
"41.00000","3.41690","3658.61"
"41.20000","3.43323","3669.98"
"41.40000","3.45027","3684.38"
"41.60000","3.46690","3696.31"
"41.80000","3.48292","3708.01"
"42.00000","3.50026","3720.77"
"42.20000","3.51699","3733.58"
"42.40000","3.53352","3743.41"
"42.60000","3.54985","3754.98"
"42.80000","3.56699","3766.97"
"43.00000","3.58372","3778.83"
"43.20000","3.60005","3788.54"
"43.40000","3.61688","3798.85"
"43.60000","3.63371","3808.55"
"43.80000","3.65004","3816.89"
"44.00000","3.66657","3825.83"
"44.20000","3.68381","3835.07"
"44.40000","3.69983","3842.26"
"44.60000","3.71646","3848.49"
"44.80000","3.73319","3857.06"
"45.00000","3.75013","3863.06"
"45.20000","3.76646","3866.7"
"45.40000","3.78349","3870.94"
"45.60000","3.80042","3875.08"
"45.80000","3.81675","3875.83"
"46.00000","3.83318","3874.37"
"46.20000","3.85032","3872.63"
"46.40000","3.86705","3866.76"
"46.60000","3.88307","3854.51"
"46.80000","3.90031","3833.67"
"47.00000","3.91704","3790.31"
"47.13800","3.92833","3411.52"
"47.14600","3.92904","2672.43"
"47.15000","3.92954","2245.87"