File: Data_Processing/Tensile-Data/Sequence_26.csv
General : Start date,"10/29/2024 10:10 AM"
General : End date,"10/29/2024 10:11 AM"
Specimen notes : Specimen note 1,"Day 2, purple, 230, batch 1, seq 26"
Test : Rate 1,"5.00000",mm/min

Time,Extension,Load
(s),(mm),(N)
"0.00000","0.00000","0.61863"
"0.20000","0.01038","11.16957"
"0.40000","0.03185","54.43659"
"0.60000","0.04989","84.87653"
"0.80000","0.06703","112.583"
"1.00000","0.08326","138.335"
"1.20000","0.10049","167.483"
"1.40000","0.11702","195.48"
"1.60000","0.13345","223.249"
"1.80000","0.15028","251.154"
"2.00000","0.16691","279.658"
"2.20000","0.18344","306.244"
"2.40000","0.19997","332.959"
"2.60000","0.21691","360.99"
"2.80000","0.23364","388.511"
"3.00000","0.24987","414.652"
"3.20000","0.26670","441.331"
"3.40000","0.28394","467.594"
"3.60000","0.29996","492.891"
"3.80000","0.31679","518.707"
"4.00000","0.33393","545.03"
"4.20000","0.35026","569.323"
"4.40000","0.36669","594.085"
"4.60000","0.38362","620.562"
"4.80000","0.40035","644.709"
"5.00000","0.41678","669.206"
"5.20000","0.43351","693.798"
"5.40000","0.45035","717.877"
"5.60000","0.46678","740.417"
"5.80000","0.48310","764.272"
"6.00000","0.50044","788.835"
"6.20000","0.51717","812.486"
"6.40000","0.53340","834.682"
"6.60000","0.55033","858.017"
"6.80000","0.56696","881.101"
"7.00000","0.58339","903.451"
"7.20000","0.60002","924.458"
"7.40000","0.61706","947.486"
"7.60000","0.63369","968.898"
"7.80000","0.65002","991.399"
"8.00000","0.66685","1013.15"
"8.20000","0.68368","1033.23"
"8.40000","0.69991","1052.69"
"8.60000","0.71674","1073.19"
"8.80000","0.73358","1093.01"
"9.00000","0.75021","1111.84"
"9.20000","0.76684","1130.01"
"9.40000","0.78337","1150"
"9.60000","0.80040","1168.72"
"9.80000","0.81673","1187.04"
"10.00000","0.83356","1206.4"
"10.20000","0.85019","1226.46"
"10.40000","0.86703","1245.24"
"10.60000","0.88325","1263.49"
"10.80000","0.90059","1283.94"
"11.00000","0.91692","1301.85"
"11.20000","0.93325","1319.2"
"11.40000","0.95028","1337.41"
"11.60000","0.96701","1356"
"11.80000","0.98324","1373.34"
"12.00000","0.99977","1391.79"
"12.20000","1.01711","1411.46"
"12.40000","1.03364","1429.31"
"12.60000","1.04977","1447.28"
"12.80000","1.06700","1467.17"
"13.00000","1.08373","1484.1"
"13.20000","1.09996","1501.6"
"13.40000","1.11689","1520.14"
"13.60000","1.13393","1539.65"
"13.80000","1.15016","1557"
"14.00000","1.16679","1574.87"
"14.20000","1.18291","1593.21"
"14.40000","1.19995","1609.89"
"14.60000","1.21638","1627.63"
"14.80000","1.23361","1645.19"
"15.00000","1.25034","1661.62"
"15.20000","1.26667","1678.25"
"15.40000","1.28341","1695.1"
"15.60000","1.30044","1712.31"
"15.80000","1.31677","1728.18"
"16.00000","1.33360","1745.71"
"16.20000","1.35043","1761.9"
"16.40000","1.36706","1778.69"
"16.60000","1.38339","1794.42"
"16.80000","1.40002","1812.13"
"17.00000","1.41716","1828.32"
"17.20000","1.43349","1844.6"
"17.40000","1.45002","1861.14"
"17.60000","1.46715","1877.62"
"17.80000","1.48338","1894.04"
"18.00000","1.49991","1910.13"
"18.20000","1.51705","1926.7"
"18.40000","1.53378","1943.58"
"18.60000","1.54980","1958.97"
"18.80000","1.56694","1975.26"
"19.00000","1.58367","1992.1"
"19.20000","1.60030","2007.95"
"19.40000","1.61663","2024.57"
"19.60000","1.63376","2040.58"
"19.80000","1.65029","2056.5"
"20.00000","1.66652","2072.63"
"20.20000","1.68356","2088.02"
"20.40000","1.70029","2105.22"
"20.60000","1.71662","2119.69"
"20.80000","1.73335","2136.61"
"21.00000","1.75028","2152.99"
"21.20000","1.76691","2169.27"
"21.40000","1.78334","2184.66"
"21.60000","1.80058","2202.03"
"21.80000","1.81721","2217.88"
"22.00000","1.83344","2233.34"
"22.20000","1.84997","2249.02"
"22.40000","1.86720","2265.5"
"22.60000","1.88343","2282.17"
"22.80000","1.89996","2297.97"
"23.00000","1.91689","2314.65"
"23.20000","1.93363","2330.36"
"23.40000","1.94995","2345.18"
"23.60000","1.96689","2361.39"
"23.80000","1.98372","2376.49"
"24.00000","2.00035","2392.59"
"24.20000","2.01648","2408.09"
"24.40000","2.03371","2424.59"
"24.60000","2.05034","2440.65"
"24.80000","2.06667","2456.73"
"25.00000","2.08381","2472.57"
"25.20000","2.10014","2488.24"
"25.40000","2.11667","2503.75"
"25.60000","2.13330","2519.39"
"25.80000","2.15043","2535.39"
"26.00000","2.16666","2550.03"
"26.20000","2.18329","2565.88"
"26.40000","2.20022","2582.22"
"26.60000","2.21716","2598.54"
"26.80000","2.23328","2613.62"
"27.00000","2.25022","2630.26"
"27.20000","2.26725","2646.28"
"27.40000","2.28328","2659.87"
"27.60000","2.29991","2675.54"
"27.80000","2.31704","2692.2"
"28.00000","2.33357","2707.96"
"28.20000","2.35000","2723.15"
"28.40000","2.36663","2738.92"
"28.60000","2.38377","2756.33"
"28.80000","2.40000","2770.45"
"29.00000","2.41673","2786.6"
"29.20000","2.43376","2800.8"
"29.40000","2.45019","2816.32"
"29.60000","2.46642","2831.61"
"29.80000","2.48376","2846.96"
"30.00000","2.49998","2862.42"
"30.20000","2.51672","2877.04"
"30.40000","2.53365","2892.05"
"30.60000","2.55038","2908.18"
"30.80000","2.56661","2921.94"
"31.00000","2.58324","2935.94"
"31.20000","2.60048","2951.72"
"31.40000","2.61691","2965.42"
"31.60000","2.63293","2979.7"
"31.80000","2.65027","2995.75"
"32.00000","2.66700","3011.77"
"32.20000","2.68363","3026.57"
"32.40000","2.70026","3041.13"
"32.60000","2.71719","3056.56"
"32.80000","2.73383","3072.44"
"33.00000","2.74995","3085.05"
"33.20000","2.76679","3100.28"
"33.40000","2.78382","3114.66"
"33.60000","2.79985","3127.91"
"33.80000","2.81678","3143.36"
"34.00000","2.83361","3156.68"
"34.20000","2.85004","3171.69"
"34.40000","2.86677","3186.27"
"34.60000","2.88371","3201.31"
"34.80000","2.90034","3215.22"
"35.00000","2.91687","3229.27"
"35.20000","2.93380","3242.64"
"35.40000","2.95043","3258.35"
"35.60000","2.96676","3272.1"
"35.80000","2.98339","3285.78"
"36.00000","3.00053","3300.22"
"36.20000","3.01695","3314.88"
"36.40000","3.03318","3327.81"
"36.60000","3.05022","3342.92"
"36.80000","3.06685","3356.09"
"37.00000","3.08318","3369.9"
"37.20000","3.10021","3383.89"
"37.40000","3.11694","3397.72"
"37.60000","3.13367","3412.28"
"37.80000","3.15000","3424.9"
"38.00000","3.16694","3439.9"
"38.20000","3.18417","3453.91"
"38.40000","3.19990","3467.28"
"38.60000","3.21703","3480.74"
"38.80000","3.23386","3495.11"
"39.00000","3.24999","3508.45"
"39.20000","3.26662","3522.85"
"39.40000","3.28386","3535.3"
"39.60000","3.29998","3549.3"
"39.80000","3.31651","3562.76"
"40.00000","3.33355","3576.23"
"40.20000","3.35028","3589.87"
"40.40000","3.36651","3602.03"
"40.60000","3.38324","3616.39"
"40.80000","3.40058","3631.02"
"41.00000","3.41690","3643"
"41.20000","3.43333","3655.88"
"41.40000","3.45057","3668.92"
"41.60000","3.46670","3681.82"
"41.80000","3.48323","3693.11"
"42.00000","3.50036","3707.04"
"42.20000","3.51699","3719.57"
"42.40000","3.53322","3731.6"
"42.60000","3.55015","3744.32"
"42.80000","3.56689","3757.23"
"43.00000","3.58372","3769.34"
"43.20000","3.59995","3779.79"
"43.40000","3.61728","3793.14"
"43.60000","3.63371","3804.11"
"43.80000","3.65014","3816.12"
"44.00000","3.66697","3828.31"
"44.20000","3.68370","3839.66"
"44.40000","3.70003","3851.09"
"44.60000","3.71677","3861.94"
"44.80000","3.73360","3873.44"
"45.00000","3.75023","3884.74"
"45.20000","3.76666","3894.61"
"45.40000","3.78349","3905.31"
"45.60000","3.80042","3915.67"
"45.80000","3.81655","3923.98"
"46.00000","3.83359","3934.55"
"46.20000","3.85062","3944.56"
"46.40000","3.86675","3952.95"
"46.60000","3.88348","3961.67"
"46.80000","3.90041","3969.87"
"47.00000","3.91704","3976.62"
"47.20000","3.93337","3983.72"
"47.40000","3.95000","3989.97"
"47.60000","3.96683","3996.47"
"47.80000","3.98346","4001.68"
"48.00000","3.99999","4005.49"
"48.20000","4.01703","4010.81"
"48.40000","4.03366","4014.06"
"48.60000","4.04989","4015.51"
"48.80000","4.06712","4017.52"
"49.00000","4.08376","4016.76"
"49.20000","4.10018","4014.13"
"49.40000","4.11702","4010.7"
"49.60000","4.13375","4003.36"
"49.80000","4.15018","3991.72"
"50.00000","4.16661","3973.76"
"50.20000","4.18364","3941.69"
"50.40000","4.20037","3863.92"
"50.47000","4.20622","3250.93"
"50.47800","4.20703","2423.95"
"50.48000","4.20733","2206.55"