File: Data_Processing/Tensile-Data/Sequence_56.csv
General : Start date,"11/5/2024 8:46 AM"
General : End date,"11/5/2024 8:47 AM"
Specimen notes : Specimen note 1,"Day 3, purple, 215, batch 19, seq 56"
Test : Rate 1,"5.00000",mm/min

Time,Extension,Load
(s),(mm),(N)
"0.00000","0.00000","0.54038"
"0.20000","0.00827","-0.03708"
"0.40000","0.02852","32.84824"
"0.60000","0.04868","72.25562"
"0.80000","0.06632","104.437"
"1.00000","0.08315","131.543"
"1.20000","0.10029","162.375"
"1.40000","0.11722","191.675"
"1.60000","0.13325","220.151"
"1.80000","0.15038","249.113"
"2.00000","0.16712","277.739"
"2.20000","0.18324","304.786"
"2.40000","0.20008","332.124"
"2.60000","0.21711","360.198"
"2.80000","0.23364","388.859"
"3.00000","0.24987","415.602"
"3.20000","0.26720","442.831"
"3.40000","0.28363","470.006"
"3.60000","0.30016","496.447"
"3.80000","0.31679","522.95"
"4.00000","0.33373","550.343"
"4.20000","0.34996","577.261"
"4.40000","0.36669","603.648"
"4.60000","0.38382","630.384"
"4.80000","0.40015","656.967"
"5.00000","0.41658","681.351"
"5.20000","0.43361","708.942"
"5.40000","0.44994","734.457"
"5.60000","0.46688","760.207"
"5.80000","0.48361","785.719"
"6.00000","0.50054","812.357"
"6.20000","0.51707","837.617"
"6.40000","0.53340","861.295"
"6.60000","0.55043","887.705"
"6.80000","0.56706","912.178"
"7.00000","0.58329","936.593"
"7.20000","0.60013","960.317"
"7.40000","0.61706","985.098"
"7.60000","0.63359","1009.63"
"7.80000","0.65002","1033.43"
"8.00000","0.66695","1056.82"
"8.20000","0.68338","1079.46"
"8.40000","0.70011","1102.47"
"8.60000","0.71684","1125.86"
"8.80000","0.73378","1148.78"
"9.00000","0.75031","1170.91"
"9.20000","0.76664","1194.08"
"9.40000","0.78377","1218.17"
"9.60000","0.80010","1239.14"
"9.80000","0.81653","1260.26"
"10.00000","0.83356","1282.83"
"10.20000","0.85009","1302.96"
"10.40000","0.86632","1324.26"
"10.60000","0.88356","1345.01"
"10.80000","0.90029","1365.72"
"11.00000","0.91702","1387.58"
"11.20000","0.93335","1407.32"
"11.40000","0.95018","1429.3"
"11.60000","0.96711","1450.04"
"11.80000","0.98314","1470.26"
"12.00000","1.00018","1490.02"
"12.20000","1.01701","1509.81"
"12.40000","1.03344","1530.4"
"12.60000","1.04997","1549.74"
"12.80000","1.06700","1570.23"
"13.00000","1.08343","1588.6"
"13.20000","1.09996","1607.42"
"13.40000","1.11699","1626.07"
"13.60000","1.13353","1644.99"
"13.80000","1.14985","1663.29"
"14.00000","1.16638","1680.22"
"14.20000","1.18402","1698.78"
"14.40000","1.20005","1715.38"
"14.60000","1.21678","1733.77"
"14.80000","1.23381","1751.24"
"15.00000","1.25045","1768.19"
"15.20000","1.26657","1785.53"
"15.40000","1.28361","1804.07"
"15.60000","1.30054","1823.01"
"15.80000","1.31667","1839.78"
"16.00000","1.33330","1857.22"
"16.20000","1.35023","1876.54"
"16.40000","1.36706","1892.54"
"16.60000","1.38309","1909.73"
"16.80000","1.40043","1927.38"
"17.00000","1.41706","1944.16"
"17.20000","1.43329","1961.3"
"17.40000","1.45032","1980.1"
"17.60000","1.46705","1997.16"
"17.80000","1.48358","2014.31"
"18.00000","1.49991","2033.2"
"18.20000","1.51694","2050.75"
"18.40000","1.53358","2067.47"
"18.60000","1.55000","2084.87"
"18.80000","1.56674","2099.66"
"19.00000","1.58377","2118.28"
"19.20000","1.59990","2134.42"
"19.40000","1.61673","2151.47"
"19.60000","1.63376","2167.84"
"19.80000","1.65009","2185.41"
"20.00000","1.66682","2201.54"
"20.20000","1.68366","2218.27"
"20.40000","1.70039","2235.37"
"20.60000","1.71662","2251.28"
"20.80000","1.73315","2267.35"
"21.00000","1.75018","2285.69"
"21.20000","1.76681","2301.18"
"21.40000","1.78314","2318.1"
"21.60000","1.80048","2334.69"
"21.80000","1.81701","2351.36"
"22.00000","1.83334","2366.05"
"22.20000","1.85027","2383.92"
"22.40000","1.86680","2400.84"
"22.60000","1.88353","2416.37"
"22.80000","1.89986","2432.35"
"23.00000","1.91709","2449.68"
"23.20000","1.93342","2464.61"
"23.40000","1.95005","2481.34"
"23.60000","1.96689","2498.11"
"23.80000","1.98382","2515.04"
"24.00000","1.99995","2529.04"
"24.20000","2.01688","2546.88"
"24.40000","2.03361","2562.67"
"24.60000","2.05024","2578.2"
"24.80000","2.06657","2594.08"
"25.00000","2.08351","2610.13"
"25.20000","2.10044","2627.19"
"25.40000","2.11636","2641.87"
"25.60000","2.13380","2660.98"
"25.80000","2.15043","2676.05"
"26.00000","2.16666","2693.07"
"26.20000","2.18329","2708.82"
"26.40000","2.20043","2724.52"
"26.60000","2.21665","2739.95"
"26.80000","2.23308","2755.63"
"27.00000","2.25042","2771.48"
"27.20000","2.26695","2787.76"
"27.40000","2.28358","2803.49"
"27.60000","2.30021","2820.28"
"27.80000","2.31725","2836.05"
"28.00000","2.33357","2853.04"
"28.20000","2.35000","2868.86"
"28.40000","2.36724","2885.89"
"28.60000","2.38377","2902.18"
"28.80000","2.40000","2917.33"
"29.00000","2.41693","2933.56"
"29.20000","2.43346","2948.68"
"29.40000","2.44989","2965.32"
"29.60000","2.46672","2979.47"
"29.80000","2.48356","2995.94"
"30.00000","2.50029","3011.06"
"30.20000","2.51662","3025.63"
"30.40000","2.53365","3042.17"
"30.60000","2.55048","3057.75"
"30.80000","2.56661","3072.63"
"31.00000","2.58354","3088.42"
"31.20000","2.60058","3104.86"
"31.40000","2.61691","3119.56"
"31.60000","2.63303","3133.29"
"31.80000","2.65017","3150.08"
"32.00000","2.66670","3164.36"
"32.20000","2.68333","3178.73"
"32.40000","2.70006","3194.13"
"32.60000","2.71689","3209.63"
"32.80000","2.73342","3225.23"
"33.00000","2.74995","3239.69"
"33.20000","2.76729","3255.7"
"33.40000","2.78352","3270.7"
"33.60000","2.80005","3286.05"
"33.80000","2.81698","3300.58"
"34.00000","2.83381","3315.18"
"34.20000","2.84994","3331.28"
"34.40000","2.86677","3345.18"
"34.60000","2.88391","3360.93"
"34.80000","2.90034","3376.31"
"35.00000","2.91646","3388.15"
"35.20000","2.93370","3404.43"
"35.40000","2.95033","3418.22"
"35.60000","2.96646","3431.99"
"35.80000","2.98359","3447.02"
"36.00000","3.00032","3461.96"
"36.20000","3.01675","3476.88"
"36.40000","3.03349","3490.07"
"36.60000","3.05032","3505.92"
"36.80000","3.06715","3520.43"
"37.00000","3.08338","3533.23"
"37.20000","3.10031","3548.45"
"37.40000","3.11704","3562.25"
"37.60000","3.13327","3575.54"
"37.80000","3.14990","3589.97"
"38.00000","3.16724","3604.82"
"38.20000","3.18347","3617.41"
"38.40000","3.20010","3631.36"
"38.60000","3.21703","3645.48"
"38.80000","3.23366","3657.5"
"39.00000","3.24979","3670.74"
"39.20000","3.26682","3683.63"
"39.40000","3.28386","3697.6"
"39.60000","3.30018","3708.88"
"39.80000","3.31661","3721.35"
"40.00000","3.33365","3732.54"
"40.20000","3.35028","3743.96"
"40.40000","3.36631","3754.61"
"40.60000","3.38384","3764.97"
"40.80000","3.40037","3774.66"
"41.00000","3.41660","3783.73"
"41.20000","3.43354","3790.82"
"41.40000","3.45037","3797.55"
"41.60000","3.46700","3803.63"
"41.80000","3.48333","3807.24"
"42.00000","3.50046","3809.37"
"42.20000","3.51699","3808.6"
"42.40000","3.53332","3803.19"
"42.60000","3.55025","3787.62"
"42.80000","3.56719","3748.32"
"42.92000","3.57676","3374.33"
"42.92800","3.57757","2646.32"
"42.93200","3.57797","2225.08"