File: Data_Processing/Tensile-Data/Sequence_7.csv
General : Start date,"10/22/2024 9:28 AM"
General : End date,"10/22/2024 9:29 AM"
Specimen notes : Specimen note 1,"red, 200, batch 7, seq 7"
Test : Rate 1,"5.00000",mm/min

Time,Extension,Load
(s),(mm),(N)
"0.00000","0.00000","0.54708"
"0.20000","0.01109","14.10676"
"0.40000","0.03296","60.00720"
"0.60000","0.04929","90.59365"
"0.80000","0.06673","121.936"
"1.00000","0.08356","141.849"
"1.20000","0.10019","172.188"
"1.40000","0.11662","200.605"
"1.60000","0.13375","231.478"
"1.80000","0.15038","261.122"
"2.00000","0.16671","291.315"
"2.20000","0.18365","320.695"
"2.40000","0.20048","350.672"
"2.60000","0.21681","380.464"
"2.80000","0.23334","409.404"
"3.00000","0.25037","439.384"
"3.20000","0.26700","468.852"
"3.40000","0.28343","496.757"
"3.60000","0.30037","526.457"
"3.80000","0.31720","555.804"
"4.00000","0.33343","582.07"
"4.20000","0.35006","611.004"
"4.40000","0.36689","640.561"
"4.60000","0.38342","669.448"
"4.80000","0.39995","697.408"
"5.00000","0.41688","725.032"
"5.20000","0.43392","754.357"
"5.40000","0.45004","780.844"
"5.60000","0.46688","809.633"
"5.80000","0.48371","838.473"
"6.00000","0.50014","865.555"
"6.20000","0.51667","893.423"
"6.40000","0.53380","921.341"
"6.60000","0.55053","948.151"
"6.80000","0.56656","975.953"
"7.00000","0.58370","1003"
"7.20000","0.60023","1031.35"
"7.40000","0.61686","1059.29"
"7.60000","0.63349","1084.9"
"7.80000","0.65052","1112.45"
"8.00000","0.66675","1139.05"
"8.20000","0.68308","1165.47"
"8.40000","0.70042","1193.58"
"8.60000","0.71705","1220.34"
"8.80000","0.73327","1246.76"
"9.00000","0.75021","1274.01"
"9.20000","0.76714","1300.37"
"9.40000","0.78337","1325.64"
"9.60000","0.80010","1351.74"
"9.80000","0.81703","1378.27"
"10.00000","0.83376","1403.8"
"10.20000","0.84979","1429.48"
"10.40000","0.86683","1456.11"
"10.60000","0.88376","1483.06"
"10.80000","0.89989","1508.34"
"11.00000","0.91692","1534.6"
"11.20000","0.93355","1560.7"
"11.40000","0.95028","1586.12"
"11.60000","0.96661","1611.39"
"11.80000","0.98405","1637.34"
"12.00000","1.00018","1663.22"
"12.20000","1.01671","1688.85"
"12.40000","1.03354","1713.98"
"12.60000","1.05047","1739.62"
"12.80000","1.06660","1763.82"
"13.00000","1.08323","1788.12"
"13.20000","1.10026","1813.26"
"13.40000","1.11689","1837.68"
"13.60000","1.13342","1861.97"
"13.80000","1.15056","1887.44"
"14.00000","1.16709","1911.7"
"14.20000","1.18332","1935.44"
"14.40000","1.20005","1959.82"
"14.60000","1.21688","1984.17"
"14.80000","1.23351","2008.69"
"15.00000","1.25024","2032.31"
"15.20000","1.26677","2055.72"
"15.40000","1.28381","2081.81"
"15.60000","1.29994","2103.49"
"15.80000","1.31707","2128.38"
"16.00000","1.33360","2151.69"
"16.20000","1.35033","2174.43"
"16.40000","1.36666","2196.62"
"16.60000","1.38380","2221.45"
"16.80000","1.40012","2244.31"
"17.00000","1.41665","2266.99"
"17.20000","1.43379","2290.62"
"17.40000","1.45032","2313.07"
"17.60000","1.46655","2335.38"
"17.80000","1.48338","2357.75"
"18.00000","1.50051","2380.28"
"18.20000","1.51694","2402.84"
"18.40000","1.53337","2424.42"
"18.60000","1.55031","2447.56"
"18.80000","1.56694","2470.31"
"19.00000","1.58337","2491.38"
"19.20000","1.60010","2514.1"
"19.40000","1.61733","2536.98"
"19.60000","1.63366","2558.68"
"19.80000","1.65019","2579.98"
"20.00000","1.66713","2602.87"
"20.20000","1.68376","2623.08"
"20.40000","1.69988","2644.07"
"20.60000","1.71702","2665.59"
"20.80000","1.73355","2687.97"
"21.00000","1.75008","2708.63"
"21.20000","1.76671","2730.26"
"21.40000","1.78385","2751.66"
"21.60000","1.80038","2772.59"
"21.80000","1.81691","2793.49"
"22.00000","1.83384","2813.94"
"22.20000","1.85037","2832.95"
"22.40000","1.86660","2853.85"
"22.60000","1.88343","2875.44"
"22.80000","1.90046","2896.53"
"23.00000","1.91669","2915.57"
"23.20000","1.93322","2857.68"
"23.40000","1.95036","2886.43"
"23.60000","1.96679","2909.58"
"23.80000","1.98322","2932"
"24.00000","2.00045","2955.74"
"24.20000","2.01728","2976.84"
"24.40000","2.03331","2997.91"
"24.60000","2.05024","3020.2"
"24.80000","2.06718","3041.17"
"25.00000","2.08391","3062.45"
"25.20000","2.09983","3083.04"
"25.40000","2.11717","3104.84"
"25.60000","2.13350","3124.2"
"25.80000","2.14993","3144.28"
"26.00000","2.16686","3165.1"
"26.20000","2.18359","3185.83"
"26.40000","2.20002","3204.77"
"26.60000","2.21655","3223.31"
"26.80000","2.23389","3243.51"
"27.00000","2.25032","3262.04"
"27.20000","2.26655","3280.96"
"27.40000","2.28398","3300.49"
"27.60000","2.30061","3319.28"
"27.80000","2.31664","3336.31"
"28.00000","2.33337","3354.59"
"28.20000","2.35041","3373.71"
"28.40000","2.36684","3391.44"
"28.60000","2.38337","3408.73"
"28.80000","2.40020","3426.65"
"29.00000","2.41713","3444.75"
"29.20000","2.43326","3461.91"
"29.40000","2.45029","3480.41"
"29.60000","2.46703","3496.76"
"29.80000","2.48356","3451.12"
"30.00000","2.49988","3470.95"
"30.20000","2.51702","3491.82"
"30.40000","2.53345","3511.31"
"30.60000","2.54988","3530.41"
"30.80000","2.56721","3549.75"
"31.00000","2.58374","3567.21"
"31.20000","2.60038","3561.61"
"31.40000","2.61680","3580.47"
"31.60000","2.63394","3599.33"
"31.80000","2.65007","3617.9"
"32.00000","2.66629","3634.92"
"32.20000","2.68353","3655.05"
"32.40000","2.70056","3672.75"
"32.60000","2.71669","3690.21"
"32.80000","2.73372","3708.4"
"33.00000","2.75076","3725.24"
"33.20000","2.76668","3742.34"
"33.40000","2.78321","3758.11"
"33.60000","2.80025","3775.06"
"33.80000","2.81708","3789.97"
"34.00000","2.83331","3806"
"34.20000","2.85024","3822.65"
"34.40000","2.86707","3837.43"
"34.60000","2.88320","3850.8"
"34.80000","2.90003","3864.78"
"35.00000","2.91707","3881.3"
"35.20000","2.93370","3895"
"35.40000","2.94993","3908.87"
"35.60000","2.96726","3923.86"
"35.80000","2.98359","3936.78"
"36.00000","3.00002","3949.32"
"36.20000","3.01695","3962.46"
"36.40000","3.03369","3975.26"
"36.60000","3.04981","3986.79"
"36.80000","3.06655","3997.71"
"37.00000","3.08388","4008.54"
"37.20000","3.10021","4017.5"
"37.40000","3.11644","4027.09"
"37.60000","3.13377","4036.45"
"37.80000","3.15041","4044.68"
"38.00000","3.16684","4049.16"
"38.20000","3.18347","4046.51"
"38.40000","3.20050","4035.35"
"38.60000","3.21723","3994.62"
"38.71200","3.22600","3584.96"
"38.72000","3.22671","2848.63"
"38.72600","3.22741","2195.5"