File: Data_Processing/Tensile-Data/Sequence_14.csv
General : Start date,"10/22/2024 9:51 AM"
General : End date,"10/22/2024 9:51 AM"
Specimen notes : Specimen note 1,"blue, 200, batch 3, seq 14"
Test : Rate 1,"5.00000",mm/min

Time,Extension,Load
(s),(mm),(N)
"0.00000","0.00000","0.07399"
"0.20000","0.01462","19.85172"
"0.40000","0.03266","55.08055"
"0.60000","0.05020","87.53728"
"0.80000","0.06703","112.49"
"1.00000","0.08326","141.293"
"1.20000","0.10019","155.752"
"1.40000","0.11712","186.631"
"1.60000","0.13375","213.233"
"1.80000","0.15008","241.595"
"2.00000","0.16702","270.797"
"2.20000","0.18375","298.273"
"2.40000","0.19997","325.058"
"2.60000","0.21671","352.8"
"2.80000","0.23374","380.043"
"3.00000","0.25017","407.953"
"3.20000","0.26670","435.374"
"3.40000","0.28373","464.172"
"3.60000","0.30037","492.218"
"3.80000","0.31649","518.481"
"4.00000","0.33353","545.429"
"4.20000","0.35036","573.007"
"4.40000","0.36659","599.838"
"4.60000","0.38342","627.017"
"4.80000","0.40045","654.798"
"5.00000","0.41688","681.019"
"5.20000","0.43331","708.239"
"5.40000","0.45035","734.634"
"5.60000","0.46728","761.265"
"5.80000","0.48331","788.091"
"6.00000","0.50014","812.976"
"6.20000","0.51667","839.933"
"6.40000","0.53350","866.326"
"6.60000","0.54973","890.983"
"6.80000","0.56686","918.967"
"7.00000","0.58360","944.758"
"7.20000","0.59992","969.473"
"7.40000","0.61696","995.694"
"7.60000","0.63359","1021.75"
"7.80000","0.65002","1047.16"
"8.00000","0.66665","1073.39"
"8.20000","0.68378","1100.5"
"8.40000","0.70021","1125.35"
"8.60000","0.71674","1150.5"
"8.80000","0.73348","1176.11"
"9.00000","0.75061","1201.45"
"9.20000","0.76664","1225.51"
"9.40000","0.78317","1251.28"
"9.60000","0.80030","1276.82"
"9.80000","0.81643","1300.52"
"10.00000","0.83336","1324.92"
"10.20000","0.85019","1350.26"
"10.40000","0.86703","1375.29"
"10.60000","0.88346","1398.62"
"10.80000","0.90019","1423.73"
"11.00000","0.91692","1447.24"
"11.20000","0.93355","1471.95"
"11.40000","0.94988","1495.71"
"11.60000","0.96701","1520.62"
"11.80000","0.98375","1544.47"
"12.00000","0.99967","1566.74"
"12.20000","1.01711","1589.93"
"12.40000","1.03344","1613.26"
"12.60000","1.05007","1637.54"
"12.80000","1.06670","1659.78"
"13.00000","1.08363","1684.43"
"13.20000","1.09996","1706.33"
"13.40000","1.11629","1728.9"
"13.60000","1.13353","1753.39"
"13.80000","1.15036","1776.37"
"14.00000","1.16638","1797.3"
"14.20000","1.18352","1821.31"
"14.40000","1.20055","1843.89"
"14.60000","1.21668","1867.07"
"14.80000","1.23341","1888.32"
"15.00000","1.25034","1912.03"
"15.20000","1.26688","1933.02"
"15.40000","1.28320","1955.68"
"15.60000","1.30014","1977.93"
"15.80000","1.31697","2000.14"
"16.00000","1.33330","2022.1"
"16.20000","1.35003","2044.42"
"16.40000","1.36686","2066"
"16.60000","1.38349","2087.4"
"16.80000","1.39982","2107.2"
"17.00000","1.41726","2129.51"
"17.20000","1.43349","2150.17"
"17.40000","1.45012","2170.84"
"17.60000","1.46695","2187.58"
"17.80000","1.48368","2209.09"
"18.00000","1.49991","2230.1"
"18.20000","1.51654","2249.43"
"18.40000","1.53368","2270.95"
"18.60000","1.55031","2289.86"
"18.80000","1.56664","2310.04"
"19.00000","1.58357","2329.24"
"19.20000","1.60030","2350.63"
"19.40000","1.61663","2370.57"
"19.60000","1.63336","2389.51"
"19.80000","1.65029","2410.28"
"20.00000","1.66682","2428.71"
"20.20000","1.68346","2444.04"
"20.40000","1.69988","2462.4"
"20.60000","1.71712","2483.04"
"20.80000","1.73325","2501.7"
"21.00000","1.75038","2431.17"
"21.20000","1.76681","2453.66"
"21.40000","1.78374","2476.88"
"21.60000","1.79987","2497.81"
"21.80000","1.81721","2521.36"
"22.00000","1.83354","2543.62"
"22.20000","1.84997","2563.77"
"22.40000","1.86690","2585.43"
"22.60000","1.88363","2606.66"
"22.80000","1.89986","2627.14"
"23.00000","1.91649","2647.29"
"23.20000","1.93373","2668.7"
"23.40000","1.95026","2687.01"
"23.60000","1.96638","2706.65"
"23.80000","1.98372","2725.54"
"24.00000","2.00025","2743.99"
"24.20000","2.01668","2763.16"
"24.40000","2.03351","2782.94"
"24.60000","2.05055","2802.04"
"24.80000","2.06677","2820.58"
"25.00000","2.08340","2838.93"
"25.20000","2.10024","2857.91"
"25.40000","2.11717","2875.28"
"25.60000","2.13299","2892.26"
"25.80000","2.15023","2911.22"
"26.00000","2.16686","2928.45"
"26.20000","2.18339","2946.27"
"26.40000","2.19992","2891.02"
"26.60000","2.21706","2916.95"
"26.80000","2.23349","2937.03"
"27.00000","2.25002","2956.94"
"27.20000","2.26695","2976.58"
"27.40000","2.28368","2997.16"
"27.60000","2.30001","3007.58"
"27.80000","2.31664","3025.15"
"28.00000","2.33368","3045.42"
"28.20000","2.35000","3063.34"
"28.40000","2.36653","3080.98"
"28.60000","2.38387","3100.34"
"28.80000","2.40000","3117.69"
"29.00000","2.41653","3126.12"
"29.20000","2.43366","3144.9"
"29.40000","2.45039","3162.06"
"29.60000","2.46652","3177.65"
"29.80000","2.48335","3194.52"
"30.00000","2.50029","3211.78"
"30.20000","2.51712","3228.8"
"30.40000","2.53315","3243.81"
"30.60000","2.55048","3261.32"
"30.80000","2.56691","3275.87"
"31.00000","2.58324","3291.16"
"31.20000","2.60017","3304.19"
"31.40000","2.61680","3319.98"
"31.60000","2.63323","3334.08"
"31.80000","2.64997","3349.56"
"32.00000","2.66680","3364.77"
"32.20000","2.68363","3379.3"
"32.40000","2.69986","3392.95"
"32.60000","2.71709","3407.49"
"32.80000","2.73393","3423.09"
"33.00000","2.74995","3435.63"
"33.20000","2.76658","3366.74"
"33.40000","2.78392","3386.89"
"33.60000","2.79995","3403.14"
"33.80000","2.81678","3420.26"
"34.00000","2.83351","3435.97"
"34.20000","2.85014","3453.66"
"34.40000","2.86657","3467.17"
"34.60000","2.88350","3483.61"
"34.80000","2.90034","3499.05"
"35.00000","2.91697","3512.22"
"35.20000","2.93309","3525.83"
"35.40000","2.95043","3539.33"
"35.60000","2.96686","3552.95"
"35.80000","2.98329","3565.84"
"36.00000","3.00053","3579.82"
"36.20000","3.01685","3592.53"
"36.40000","3.03369","3602.97"
"36.60000","3.05002","3614.93"
"36.80000","3.06695","3625.88"
"37.00000","3.08348","3637.06"
"37.20000","3.09971","3647.31"
"37.40000","3.11684","3655.78"
"37.60000","3.13377","3665.34"
"37.80000","3.14980","3673.51"
"38.00000","3.16704","3684.34"
"38.20000","3.18387","3692.49"
"38.40000","3.19990","3700.7"
"38.60000","3.21663","3708.1"
"38.80000","3.23366","3716.8"
"39.00000","3.25029","3724.42"
"39.20000","3.26662","3729.27"
"39.40000","3.28335","3735.41"
"39.60000","3.30069","3739.24"
"39.80000","3.31661","3743.09"
"40.00000","3.33325","3746.24"
"40.20000","3.35028","3749.56"
"40.40000","3.36691","3750.77"
"40.60000","3.38314","3750.66"
"40.80000","3.40058","3734.55"
"41.00000","3.41690","3733.37"
"41.20000","3.43354","3733.46"
"41.40000","3.45017","3732.37"
"41.60000","3.46690","3732.42"
"41.80000","3.48323","3729.43"
"42.00000","3.49976","3725.48"
"42.20000","3.51709","3719.97"
"42.40000","3.53362","3701.62"
"42.60000","3.54965","3644.72"
"42.80000","3.56719","3463.13"
"43.00000","3.58382","3384.24"
"43.20000","3.59995","3332.03"
"43.40000","3.61688","3244.35"
"43.43600","3.62000","2605.25"
"43.44400","3.62091","1885.25"