File: Data_Processing/Tensile-Data/Sequence_16.csv
General : Start date,"10/22/2024 9:55 AM"
General : End date,"10/22/2024 9:56 AM"
Specimen notes : Specimen note 1,"green, 200, batch 7, seq 16"
Test : Rate 1,"5.00000",mm/min

Time,Extension,Load
(s),(mm),(N)
"0.00000","0.00000","-0.46137"
"0.20000","0.00988","9.44160"
"0.40000","0.03246","48.91557"
"0.60000","0.04989","76.14305"
"0.80000","0.06642","103.711"
"1.00000","0.08336","130.245"
"1.20000","0.10059","144.204"
"1.40000","0.11692","171.469"
"1.60000","0.13345","198.531"
"1.80000","0.15038","227.38"
"2.00000","0.16732","254.908"
"2.20000","0.18334","282.156"
"2.40000","0.20018","309.53"
"2.60000","0.21701","336.889"
"2.80000","0.23354","364.899"
"3.00000","0.25007","391.848"
"3.20000","0.26700","420.377"
"3.40000","0.28373","447.559"
"3.60000","0.30026","475.56"
"3.80000","0.31700","502.272"
"4.00000","0.33373","529.692"
"4.20000","0.35026","556.714"
"4.40000","0.36659","583.183"
"4.60000","0.38362","611.812"
"4.80000","0.40045","639.343"
"5.00000","0.41678","666.769"
"5.20000","0.43382","693.854"
"5.40000","0.45045","721.22"
"5.60000","0.46678","747.793"
"5.80000","0.48341","774.201"
"6.00000","0.50054","801.692"
"6.20000","0.51677","828.763"
"6.40000","0.53340","854.321"
"6.60000","0.55033","882.16"
"6.80000","0.56706","909.461"
"7.00000","0.58319","935.189"
"7.20000","0.60033","962.397"
"7.40000","0.61726","989.529"
"7.60000","0.63339","1014.69"
"7.80000","0.65012","1040.18"
"8.00000","0.66665","1067.1"
"8.20000","0.68378","1094.65"
"8.40000","0.69971","1118.74"
"8.60000","0.71695","1146.48"
"8.80000","0.73368","1172.25"
"9.00000","0.75011","1198.23"
"9.20000","0.76664","1223.2"
"9.40000","0.78387","1251.1"
"9.60000","0.80010","1275.17"
"9.80000","0.81673","1302.2"
"10.00000","0.83376","1327.54"
"10.20000","0.85050","1352.12"
"10.40000","0.86683","1376.93"
"10.60000","0.88346","1403.02"
"10.80000","0.90059","1427.75"
"11.00000","0.91682","1453.81"
"11.20000","0.93335","1478.72"
"11.40000","0.95038","1502.78"
"11.60000","0.96671","1527.19"
"11.80000","0.98304","1551.66"
"12.00000","1.00028","1575.96"
"12.20000","1.01711","1601.68"
"12.40000","1.03364","1626.32"
"12.60000","1.05037","1651.14"
"12.80000","1.06700","1675.42"
"13.00000","1.08373","1700.73"
"13.20000","1.10006","1724.24"
"13.40000","1.11720","1748.93"
"13.60000","1.13383","1771.43"
"13.80000","1.14995","1795.05"
"14.00000","1.16679","1819.11"
"14.20000","1.18362","1837.93"
"14.40000","1.20015","1862.19"
"14.60000","1.21678","1885.73"
"14.80000","1.23371","1908.82"
"15.00000","1.25024","1932.01"
"15.20000","1.26657","1954"
"15.40000","1.28361","1977.28"
"15.60000","1.30054","2002.19"
"15.80000","1.31667","2023.53"
"16.00000","1.33350","2045"
"16.20000","1.35053","2068.9"
"16.40000","1.36686","2090.81"
"16.60000","1.38349","2112.95"
"16.80000","1.40033","2135.66"
"17.00000","1.41716","2159.1"
"17.20000","1.43329","2179.93"
"17.40000","1.45022","2201.61"
"17.60000","1.46685","2224.21"
"17.80000","1.48368","2246.34"
"18.00000","1.49981","2267.94"
"18.20000","1.51694","2292.08"
"18.40000","1.53388","2313.16"
"18.60000","1.54990","2335.05"
"18.80000","1.56714","2345.83"
"19.00000","1.58367","2368.55"
"19.20000","1.60030","2388.6"
"19.40000","1.61673","2409.13"
"19.60000","1.63376","2431.13"
"19.80000","1.65019","2451.75"
"20.00000","1.66662","2472.85"
"20.20000","1.68366","2493.61"
"20.40000","1.70049","2515.83"
"20.60000","1.71662","2535.5"
"20.80000","1.73365","2554.06"
"21.00000","1.75048","2575.1"
"21.20000","1.76671","2595.02"
"21.40000","1.78344","2615.31"
"21.60000","1.80038","2636.14"
"21.80000","1.81711","2655.09"
"22.00000","1.83323","2674.72"
"22.20000","1.85007","2694.35"
"22.40000","1.86730","2714.65"
"22.60000","1.88333","2734.03"
"22.80000","1.90016","2753.31"
"23.00000","1.91709","2773.99"
"23.20000","1.93383","2793.49"
"23.40000","1.94995","2811.42"
"23.60000","1.96729","2832.51"
"23.80000","1.98362","2850.98"
"24.00000","2.00025","2869.82"
"24.20000","2.01698","2887.41"
"24.40000","2.03381","2906.73"
"24.60000","2.04994","2924.17"
"24.80000","2.06667","2942.17"
"25.00000","2.08391","2960.32"
"25.20000","2.10034","2975.73"
"25.40000","2.11636","2990.15"
"25.60000","2.13380","3005.41"
"25.80000","2.15053","3022.22"
"26.00000","2.16666","3037.22"
"26.20000","2.18349","3053.34"
"26.40000","2.20022","3069.7"
"26.60000","2.21706","3068.37"
"26.80000","2.23349","3069.81"
"27.00000","2.25032","3082.46"
"27.20000","2.26725","3097.29"
"27.40000","2.28328","3110.06"
"27.60000","2.30021","3124.09"
"27.80000","2.31694","3141.24"
"28.00000","2.33357","3153.48"
"28.20000","2.34970","3166.73"
"28.40000","2.36714","3182.39"
"28.60000","2.38337","3195.46"
"28.80000","2.40030","3209.66"
"29.00000","2.41723","3225.21"
"29.20000","2.43366","3236.75"
"29.40000","2.45009","3249.76"
"29.60000","2.46662","3263.32"
"29.80000","2.48376","3277.34"
"30.00000","2.50039","3291.03"
"30.20000","2.51651","3302.08"
"30.40000","2.53365","3315.11"
"30.60000","2.55028","3323.57"
"30.80000","2.56661","3291.92"
"31.00000","2.58364","3290.16"
"31.20000","2.60038","3301.56"
"31.40000","2.61691","3301.42"
"31.60000","2.63344","3312.59"
"31.80000","2.65017","3323.88"
"32.00000","2.66740","3337.23"
"32.20000","2.68313","3348.98"
"32.40000","2.70056","3362.14"
"32.60000","2.71719","3351.63"
"32.80000","2.73332","3364.52"
"33.00000","2.75015","3380.31"
"33.20000","2.76699","3393.59"
"33.40000","2.78332","3406.35"
"33.60000","2.79995","3419.52"
"33.80000","2.81698","3431.21"
"34.00000","2.83381","3445.05"
"34.20000","2.85004","3456.96"
"34.40000","2.86697","3469"
"34.60000","2.88411","3481.8"
"34.80000","2.90024","3492.17"
"35.00000","2.91656","3503.09"
"35.20000","2.93400","3514.48"
"35.40000","2.95033","3526.17"
"35.60000","2.96666","3536.67"
"35.80000","2.98369","3548.37"
"36.00000","3.00042","3558.82"
"36.20000","3.01665","3568.28"
"36.40000","3.03349","3578.22"
"36.60000","3.05022","3588.46"
"36.80000","3.06715","3597.25"
"37.00000","3.08308","3606.69"
"37.20000","3.10051","3615.91"
"37.40000","3.11704","3624.84"
"37.60000","3.13337","3632.32"
"37.80000","3.15041","3640.04"
"38.00000","3.16724","3648.25"
"38.20000","3.18367","3654.82"
"38.40000","3.20030","3661.31"
"38.60000","3.21713","3668.8"
"38.80000","3.23356","3674.15"
"39.00000","3.24979","3678.76"
"39.20000","3.26692","3684.32"
"39.40000","3.28406","3689.36"
"39.60000","3.30018","3692.29"
"39.80000","3.31692","3693.61"
"40.00000","3.33415","3695.29"
"40.20000","3.35018","3690.95"
"40.40000","3.36651","3681.34"
"40.60000","3.38374","3649.59"
"40.80000","3.40058","3390.89"
"41.00000","3.41690","3244.69"
"41.05800","3.42174","2571.91"
"41.06600","3.42265","1851.6"